#FILENAME= 'h_gam-dra_uvsum_1x_55783-55836_etc.dat' / name of file
#                                                   
#FILETYPE= 'ETC'                / type of data found in data file
#TELESCOP= 'HST'                / telescope used to acquire data
#INSTRUME= 'STIS'               / instrument used to acquire data
#EQUINOX =               2000.0 / equinox of celestial coord. system
#                                                   
#             / TARGET INFORMATION                  
#                                                   
#CATNAME = 'GAM-DRA'            / ASTRAL object name
#RA_TARG =           269.151486 / right ascension of target (deg) (J2000)
#DEC_TARG=            51.488818 / declination of target (deg) (J2000)
#                                                   
#WAVEMIN =                1163. / minimum wavelength (Angstroms)
#WAVEMAX =                3070. / maximum wavelength (Angstroms)
#                                                   
###################################################################
#                                                                 #
#   !!!!WARNING!!!!  This is a heavily processed spectrum         #
#   specifically for use with an Exposure Time Calculator.        #
# --------------------------------------------------------------  #
#   ** IT IS NOT SUITABLE FOR SCIENTIFIC ANALYSIS **              #
# --------------------------------------------------------------  #
#   See:                                                          #
#                                                                 #
# http://casa.colorado.edu/~ayres/StarCAT/ETC_spex_summary.txt  #
#                                                                 #
#   for cautions and limitations concerning the ETC spectra.      #
#                                                                 #
###################################################################
#                                                          
# Column 1:  WAVELENGTH    (Angstroms)              (F8.3) 
# Column 2:  FLUX          (erg/cm**2/s/Angstrom)  (E11.3)
#                                        
#NPTS    =                 9519 / Number of wavelength-flux entries
#                                                          
1163.400  3.584E-14
1163.600  3.584E-14
1163.800  3.584E-14
1164.000  3.584E-14
1164.200  3.584E-14
1164.400  3.584E-14
1164.600  3.584E-14
1164.800  3.584E-14
1165.000  3.581E-14
1165.200  3.510E-14
1165.400  3.422E-14
1165.600  3.331E-14
1165.800  3.220E-14
1166.000  3.105E-14
1166.200  2.984E-14
1166.400  2.844E-14
1166.600  2.732E-14
1166.800  2.606E-14
1167.000  2.485E-14
1167.200  2.364E-14
1167.400  2.230E-14
1167.600  2.102E-14
1167.800  1.957E-14
1168.000  1.813E-14
1168.200  1.682E-14
1168.400  1.546E-14
1168.600  1.433E-14
1168.800  1.320E-14
1169.000  1.220E-14
1169.200  1.132E-14
1169.400  1.044E-14
1169.600  9.723E-15
1169.800  9.020E-15
1170.000  8.439E-15
1170.200  8.099E-15
1170.400  7.909E-15
1170.600  7.744E-15
1170.800  7.572E-15
1171.000  7.434E-15
1171.200  7.308E-15
1171.400  7.181E-15
1171.600  7.081E-15
1171.800  6.988E-15
1172.000  6.908E-15
1172.200  6.844E-15
1172.400  6.784E-15
1172.600  6.731E-15
1172.800  3.614E-14
1173.000  3.742E-14
1173.200  6.579E-15
1173.400  6.531E-15
1173.600  6.487E-15
1173.800  6.441E-15
1174.000  6.395E-15
1174.200  6.354E-15
1174.400  6.310E-15
1174.600  6.270E-15
1174.800  6.225E-15
1175.000  6.186E-15
1175.200  6.147E-15
1175.400  6.106E-15
1175.600  6.068E-15
1175.800  6.026E-15
1176.000  5.988E-15
1176.200  5.951E-15
1176.400  5.912E-15
1176.600  5.876E-15
1176.800  5.835E-15
1177.000  5.799E-15
1177.200  5.764E-15
1177.400  5.726E-15
1177.600  5.692E-15
1177.800  5.655E-15
1178.000  5.620E-15
1178.200  1.874E-13
1178.400  2.305E-13
1178.600  5.520E-15
1178.800  5.487E-15
1179.000  5.454E-15
1179.200  5.424E-15
1179.400  5.393E-15
1179.600  5.364E-15
1179.800  5.334E-15
1180.000  5.304E-15
1180.200  5.279E-15
1180.400  5.249E-15
1180.600  5.224E-15
1180.800  3.920E-14
1181.000  2.784E-14
1181.200  5.145E-15
1181.400  5.119E-15
1181.600  5.094E-15
1181.800  1.975E-14
1182.000  5.044E-15
1182.200  5.021E-15
1182.400  3.062E-14
1182.600  2.486E-14
1182.800  4.951E-15
1183.000  4.929E-15
1183.200  4.907E-15
1183.400  4.885E-15
1183.600  4.864E-15
1183.800  4.843E-15
1184.000  4.822E-15
1184.200  4.802E-15
1184.400  4.782E-15
1184.600  4.763E-15
1184.800  4.743E-15
1185.000  4.725E-15
1185.200  4.708E-15
1185.400  4.689E-15
1185.600  4.672E-15
1185.800  4.654E-15
1186.000  4.636E-15
1186.200  1.895E-14
1186.400  4.602E-15
1186.600  4.587E-15
1186.800  4.569E-15
1187.000  4.553E-15
1187.200  4.538E-15
1187.400  1.931E-14
1187.600  1.839E-14
1187.800  1.506E-14
1188.000  4.477E-15
1188.200  4.463E-15
1188.400  4.448E-15
1188.600  4.434E-15
1188.800  4.421E-15
1189.000  4.408E-15
1189.200  4.396E-15
1189.400  4.383E-15
1189.600  4.372E-15
1189.800  4.360E-15
1190.000  4.350E-15
1190.200  1.525E-14
1190.400  1.898E-14
1190.600  1.843E-14
1190.800  1.553E-14
1191.000  4.303E-15
1191.200  4.295E-15
1191.400  4.287E-15
1191.600  1.544E-14
1191.800  4.272E-15
1192.000  4.265E-15
1192.200  4.259E-15
1192.400  4.252E-15
1192.600  1.822E-14
1192.800  4.240E-15
1193.000  4.234E-15
1193.200  4.229E-15
1193.400  4.223E-15
1193.600  1.380E-14
1193.800  4.213E-15
1194.000  4.208E-15
1194.200  4.204E-15
1194.400  4.199E-15
1194.600  1.530E-14
1194.800  4.191E-15
1195.000  4.188E-15
1195.200  4.185E-15
1195.400  4.181E-15
1195.600  4.179E-15
1195.800  1.664E-14
1196.000  4.173E-15
1196.200  4.171E-15
1196.400  4.168E-15
1196.600  1.905E-14
1196.800  1.462E-14
1197.000  4.162E-15
1197.200  4.160E-15
1197.400  4.159E-15
1197.600  4.157E-15
1197.800  1.518E-14
1198.000  1.362E-14
1198.200  1.874E-14
1198.400  1.587E-14
1198.600  1.463E-14
1198.800  1.711E-14
1199.000  4.343E-14
1199.200  4.597E-14
1199.400  4.146E-15
1199.600  4.101E-14
1199.800  2.382E-14
1200.000  2.247E-14
1200.200  3.459E-14
1200.400  3.311E-14
1200.600  4.146E-15
1200.800  1.389E-14
1201.000  4.148E-15
1201.200  4.149E-15
1201.400  1.365E-14
1201.600  1.582E-14
1201.800  1.929E-14
1202.000  1.960E-14
1202.200  4.160E-15
1202.400  1.917E-14
1202.600  1.763E-14
1202.800  1.372E-14
1203.000  4.173E-15
1203.200  1.261E-14
1203.400  2.033E-14
1203.600  1.365E-14
1203.800  4.192E-15
1204.000  4.197E-15
1204.200  1.459E-14
1204.400  4.212E-15
1204.600  4.219E-15
1204.800  4.228E-15
1205.000  4.238E-15
1205.200  2.233E-14
1205.400  4.310E-14
1205.600  3.801E-14
1205.800  2.412E-14
1206.000  2.508E-14
1206.200  2.626E-14
1206.400  8.589E-14
1206.600  9.885E-14
1206.800  3.771E-14
1207.000  4.244E-14
1207.200  1.992E-14
1207.400  1.818E-14
1207.600  2.715E-14
1207.800  1.945E-14
1208.000  1.975E-14
1208.200  2.311E-14
1208.400  4.296E-14
1208.600  1.324E-13
1208.800  1.688E-13
1209.000  5.416E-14
1209.200  9.113E-14
1209.400  1.175E-13
1209.600  5.028E-14
1209.800  5.403E-14
1210.000  4.219E-14
1210.200  3.699E-14
1210.400  3.864E-14
1210.600  3.654E-14
1210.800  5.680E-14
1211.000  1.017E-13
1211.200  1.029E-13
1211.400  6.611E-14
1211.600  8.407E-14
1211.800  1.163E-13
1212.000  1.152E-13
1212.200  1.030E-13
1212.400  1.180E-13
1212.600  1.281E-13
1212.800  1.295E-13
1213.000  1.508E-13
1213.200  2.701E-13
1213.400  4.177E-13
1213.600  6.447E-13
1213.800  1.286E-12
1214.000  2.086E-12
1214.200  3.108E-12
1214.400  4.430E-12
1214.600  5.425E-12
1214.800  5.815E-12
1215.000  5.445E-12
1215.200  7.724E-13
1215.400  5.175E-14
1215.600  2.627E-13
1215.800  7.673E-13
1216.000  4.981E-12
1216.200  6.479E-12
1216.400  6.521E-12
1216.600  6.031E-12
1216.800  4.643E-12
1217.000  3.379E-12
1217.200  2.391E-12
1217.400  1.548E-12
1217.600  9.413E-13
1217.800  4.997E-13
1218.000  3.217E-13
1218.200  2.091E-13
1218.400  2.593E-13
1218.600  2.748E-13
1218.800  1.495E-13
1219.000  9.667E-14
1219.200  9.470E-14
1219.400  9.581E-14
1219.600  9.722E-14
1219.800  1.386E-13
1220.000  2.128E-13
1220.200  1.866E-13
1220.400  6.930E-14
1220.600  5.523E-14
1220.800  9.031E-14
1221.000  5.992E-14
1221.200  7.531E-14
1221.400  1.489E-13
1221.600  9.280E-14
1221.800  3.905E-14
1222.000  4.881E-14
1222.200  6.820E-14
1222.400  5.043E-14
1222.600  3.629E-14
1222.800  3.865E-14
1223.000  2.252E-14
1223.200  2.509E-14
1223.400  2.612E-14
1223.600  3.027E-14
1223.800  4.051E-14
1224.000  2.628E-14
1224.200  2.160E-14
1224.400  2.439E-14
1224.600  1.436E-14
1224.800  3.356E-14
1225.000  3.050E-14
1225.200  2.187E-14
1225.400  2.438E-14
1225.600  2.438E-14
1225.800  1.926E-14
1226.000  1.971E-14
1226.200  1.971E-14
1226.400  2.557E-15
1226.600  1.138E-14
1226.800  1.427E-14
1227.000  2.100E-14
1227.200  2.085E-14
1227.400  1.612E-14
1227.600  1.357E-14
1227.800  1.704E-14
1228.000  1.936E-14
1228.200  1.221E-14
1228.400  1.271E-14
1228.600  1.407E-14
1228.800  1.236E-14
1229.000  1.257E-14
1229.200  1.058E-14
1229.400  1.192E-14
1229.600  1.007E-14
1229.800  9.331E-15
1230.000  2.636E-14
1230.200  1.831E-14
1230.400  1.953E-14
1230.600  9.914E-15
1230.800  1.021E-14
1231.000  1.164E-14
1231.200  1.274E-14
1231.400  9.090E-15
1231.600  1.255E-14
1231.800  9.292E-15
1232.000  8.632E-15
1232.200  9.305E-15
1232.400  1.220E-14
1232.600  1.085E-14
1232.800  7.880E-15
1233.000  1.360E-14
1233.200  1.224E-14
1233.400  1.097E-14
1233.600  8.218E-15
1233.800  1.157E-14
1234.000  1.100E-14
1234.200  1.288E-14
1234.400  1.405E-14
1234.600  9.715E-15
1234.800  1.021E-14
1235.000  1.409E-14
1235.200  1.123E-14
1235.400  1.296E-14
1235.600  8.779E-15
1235.800  7.712E-15
1236.000  7.939E-15
1236.200  8.546E-15
1236.400  9.094E-15
1236.600  1.302E-14
1236.800  1.156E-14
1237.000  1.206E-14
1237.200  1.212E-14
1237.400  1.365E-14
1237.600  1.222E-14
1237.800  1.982E-14
1238.000  8.916E-15
1238.200  1.870E-14
1238.400  2.476E-14
1238.600  4.908E-14
1238.800  5.306E-14
1239.000  2.974E-14
1239.200  1.677E-14
1239.400  1.301E-14
1239.600  1.005E-14
1239.800  1.924E-15
1240.000  1.230E-14
1240.200  1.183E-14
1240.400  1.037E-14
1240.600  6.745E-15
1240.800  8.027E-15
1241.000  1.099E-14
1241.200  1.117E-14
1241.400  8.798E-15
1241.600  9.141E-15
1241.800  1.188E-14
1242.000  1.027E-14
1242.200  1.015E-14
1242.400  2.017E-14
1242.600  3.400E-14
1242.800  3.256E-14
1243.000  1.262E-14
1243.200  1.821E-15
1243.400  1.340E-14
1243.600  8.556E-15
1243.800  1.168E-14
1244.000  1.235E-14
1244.200  6.077E-15
1244.400  1.272E-14
1244.600  9.285E-15
1244.800  1.175E-14
1245.000  1.547E-14
1245.200  1.481E-14
1245.400  6.127E-15
1245.600  1.763E-15
1245.800  1.929E-14
1246.000  1.300E-14
1246.200  1.749E-15
1246.400  1.745E-15
1246.600  1.479E-14
1246.800  2.044E-14
1247.000  1.143E-14
1247.200  8.868E-15
1247.400  5.297E-15
1247.600  1.461E-14
1247.800  2.287E-14
1248.000  1.858E-14
1248.200  1.703E-15
1248.400  1.699E-15
1248.600  1.695E-15
1248.800  1.057E-14
1249.000  1.030E-14
1249.200  2.367E-14
1249.400  2.487E-14
1249.600  1.674E-15
1249.800  1.670E-15
1250.000  1.666E-15
1250.200  1.341E-14
1250.400  1.424E-14
1250.600  1.656E-15
1250.800  1.653E-15
1251.000  2.173E-14
1251.200  1.975E-14
1251.400  5.974E-15
1251.600  1.642E-15
1251.800  1.639E-15
1252.000  1.680E-14
1252.200  1.680E-14
1252.400  5.561E-15
1252.600  1.631E-15
1252.800  7.950E-15
1253.000  1.627E-15
1253.200  1.724E-14
1253.400  2.429E-14
1253.600  1.041E-14
1253.800  9.572E-15
1254.000  1.497E-14
1254.200  7.080E-15
1254.400  1.909E-14
1254.600  1.055E-14
1254.800  5.478E-15
1255.000  8.560E-15
1255.200  1.037E-14
1255.400  1.607E-15
1255.600  1.605E-15
1255.800  1.604E-15
1256.000  8.275E-15
1256.200  1.008E-14
1256.400  2.535E-14
1256.600  1.102E-14
1256.800  1.596E-15
1257.000  1.595E-15
1257.200  8.774E-15
1257.400  1.559E-14
1257.600  3.045E-14
1257.800  3.768E-14
1258.000  6.558E-15
1258.200  5.393E-15
1258.400  5.529E-15
1258.600  1.656E-14
1258.800  1.416E-14
1259.000  5.378E-15
1259.200  9.902E-15
1259.400  1.297E-14
1259.600  1.193E-14
1259.800  1.566E-15
1260.000  1.564E-15
1260.200  1.561E-15
1260.400  1.026E-14
1260.600  9.967E-15
1260.800  1.554E-15
1261.000  6.652E-15
1261.200  7.371E-15
1261.400  8.360E-15
1261.600  1.454E-14
1261.800  6.419E-15
1262.000  5.120E-15
1262.200  1.538E-15
1262.400  1.536E-15
1262.600  5.005E-15
1262.800  8.108E-15
1263.000  1.300E-14
1263.200  1.140E-14
1263.400  5.666E-15
1263.600  8.081E-15
1263.800  4.813E-15
1264.000  9.599E-15
1264.200  9.106E-15
1264.400  1.515E-15
1264.600  9.549E-15
1264.800  1.281E-14
1265.000  1.818E-14
1265.200  1.749E-14
1265.400  3.088E-14
1265.600  3.992E-14
1265.800  1.500E-15
1266.000  2.261E-14
1266.200  3.089E-14
1266.400  4.360E-14
1266.600  1.624E-14
1266.800  1.134E-14
1267.000  5.317E-15
1267.200  5.317E-15
1267.400  1.855E-14
1267.600  1.855E-14
1267.800  1.480E-15
1268.000  7.752E-15
1268.200  6.364E-15
1268.400  1.473E-15
1268.600  1.472E-15
1268.800  4.204E-15
1269.000  7.243E-15
1269.200  7.707E-15
1269.400  1.463E-15
1269.600  1.461E-15
1269.800  1.459E-15
1270.000  1.457E-15
1270.200  5.502E-15
1270.400  1.453E-15
1270.600  1.754E-14
1270.800  1.578E-14
1271.000  1.431E-14
1271.200  1.445E-15
1271.400  1.443E-15
1271.600  5.544E-15
1271.800  1.184E-14
1272.000  9.245E-15
1272.200  9.271E-15
1272.400  1.435E-15
1272.600  1.434E-15
1272.800  4.970E-15
1273.000  1.525E-14
1273.200  1.448E-14
1273.400  1.429E-15
1273.600  1.428E-15
1273.800  1.427E-15
1274.000  6.641E-15
1274.200  1.425E-15
1274.400  3.093E-14
1274.600  1.707E-14
1274.800  3.126E-14
1275.000  2.267E-14
1275.200  6.260E-15
1275.400  1.421E-15
1275.600  1.421E-15
1275.800  1.420E-15
1276.000  1.017E-14
1276.200  1.901E-14
1276.400  5.745E-15
1276.600  1.419E-15
1276.800  4.185E-15
1277.000  8.636E-15
1277.200  7.342E-15
1277.400  7.780E-15
1277.600  4.439E-15
1277.800  5.055E-15
1278.000  5.044E-15
1278.200  4.712E-15
1278.400  1.420E-15
1278.600  5.165E-15
1278.800  7.939E-15
1279.000  1.133E-14
1279.200  1.156E-14
1279.400  1.745E-14
1279.600  5.134E-15
1279.800  6.247E-15
1280.000  7.202E-15
1280.200  8.253E-15
1280.400  8.158E-15
1280.600  8.160E-15
1280.800  6.592E-15
1281.000  5.470E-15
1281.200  5.581E-15
1281.400  1.431E-15
1281.600  1.432E-15
1281.800  1.433E-15
1282.000  1.434E-15
1282.200  1.608E-14
1282.400  1.634E-14
1282.600  1.438E-15
1282.800  1.110E-14
1283.000  2.932E-14
1283.200  1.442E-15
1283.400  6.796E-15
1283.600  1.446E-15
1283.800  1.447E-15
1284.000  8.766E-15
1284.200  5.731E-15
1284.400  1.453E-15
1284.600  1.454E-15
1284.800  1.456E-15
1285.000  4.396E-15
1285.200  1.460E-15
1285.400  1.462E-15
1285.600  5.497E-15
1285.800  1.465E-15
1286.000  1.467E-15
1286.200  1.463E-14
1286.400  1.544E-14
1286.600  1.255E-14
1286.800  1.474E-15
1287.000  6.557E-15
1287.200  6.837E-15
1287.400  1.479E-15
1287.600  6.969E-15
1287.800  9.021E-15
1288.000  1.060E-14
1288.200  2.762E-14
1288.400  2.971E-14
1288.600  1.246E-14
1288.800  3.429E-14
1289.000  9.300E-14
1289.200  1.713E-14
1289.400  1.498E-15
1289.600  8.703E-15
1289.800  2.098E-14
1290.000  2.002E-14
1290.200  6.628E-15
1290.400  1.512E-15
1290.600  1.515E-15
1290.800  6.290E-15
1291.000  1.522E-15
1291.200  1.308E-14
1291.400  4.985E-14
1291.600  4.552E-14
1291.800  7.349E-15
1292.000  7.473E-15
1292.200  5.106E-14
1292.400  5.213E-14
1292.600  1.558E-15
1292.800  1.564E-15
1293.000  1.570E-15
1293.200  1.575E-15
1293.400  7.002E-14
1293.600  6.854E-14
1293.800  2.195E-14
1294.000  1.601E-15
1294.200  1.608E-15
1294.400  1.616E-15
1294.600  1.603E-14
1294.800  4.003E-14
1295.000  1.087E-14
1295.200  1.153E-14
1295.400  8.821E-13
1295.600  1.030E-12
1295.800  9.402E-14
1296.000  7.899E-13
1296.200  7.683E-13
1296.400  2.323E-14
1296.600  1.709E-15
1296.800  6.750E-15
1297.000  1.727E-15
1297.200  5.744E-15
1297.400  1.744E-15
1297.600  1.752E-15
1297.800  1.760E-15
1298.000  1.172E-14
1298.200  9.579E-15
1298.400  1.782E-15
1298.600  2.140E-14
1298.800  2.122E-14
1299.000  2.156E-14
1299.200  8.874E-14
1299.400  1.065E-13
1299.600  1.391E-14
1299.800  7.355E-15
1300.000  8.845E-15
1300.200  6.615E-15
1300.400  1.829E-15
1300.600  1.965E-14
1300.800  7.451E-14
1301.000  3.066E-14
1301.200  1.080E-14
1301.400  1.074E-14
1301.600  9.487E-14
1301.800  6.809E-13
1302.000  7.896E-13
1302.200  2.168E-12
1302.400  1.084E-12
1302.600  4.941E-13
1302.800  8.664E-13
1303.000  5.730E-14
1303.200  7.728E-14
1303.400  5.683E-14
1303.600  1.600E-14
1303.800  1.155E-14
1304.000  1.875E-14
1304.200  2.743E-14
1304.400  4.649E-13
1304.600  9.548E-13
1304.800  2.269E-12
1305.000  2.202E-12
1305.200  9.709E-14
1305.400  3.138E-14
1305.600  7.114E-13
1305.800  1.435E-12
1306.000  2.400E-12
1306.200  1.925E-12
1306.400  2.272E-14
1306.600  8.046E-15
1306.800  7.679E-15
1307.000  3.419E-14
1307.200  3.345E-14
1307.400  9.641E-15
1307.600  1.096E-14
1307.800  7.255E-15
1308.000  8.036E-15
1308.200  1.679E-15
1308.400  6.735E-15
1308.600  9.919E-15
1308.800  1.076E-14
1309.000  2.268E-14
1309.200  4.601E-14
1309.400  5.022E-14
1309.600  1.618E-13
1309.800  2.390E-13
1310.000  2.273E-14
1310.200  1.241E-14
1310.400  1.068E-14
1310.600  9.486E-15
1310.800  7.954E-15
1311.000  7.983E-15
1311.200  3.904E-14
1311.400  3.255E-14
1311.600  5.226E-15
1311.800  1.333E-14
1312.000  1.463E-14
1312.200  1.695E-14
1312.400  8.804E-15
1312.600  6.187E-15
1312.800  1.086E-14
1313.000  6.975E-15
1313.200  1.849E-14
1313.400  3.236E-14
1313.600  5.999E-15
1313.800  6.109E-15
1314.000  5.718E-15
1314.200  1.463E-15
1314.400  2.011E-14
1314.600  2.047E-14
1314.800  1.442E-15
1315.000  1.435E-15
1315.200  1.429E-15
1315.400  1.423E-15
1315.600  1.166E-14
1315.800  2.066E-14
1316.000  1.147E-14
1316.200  7.855E-15
1316.400  3.944E-14
1316.600  3.407E-14
1316.800  1.383E-15
1317.000  1.378E-15
1317.200  1.374E-15
1317.400  5.455E-15
1317.600  5.644E-15
1317.800  5.708E-15
1318.000  5.905E-15
1318.200  1.354E-15
1318.400  1.350E-15
1318.600  7.370E-15
1318.800  5.555E-14
1319.000  2.416E-14
1319.200  1.209E-14
1319.400  1.336E-15
1319.600  1.333E-15
1319.800  1.331E-15
1320.000  5.186E-15
1320.200  5.588E-15
1320.400  4.125E-15
1320.600  1.324E-15
1320.800  1.323E-15
1321.000  5.863E-15
1321.200  4.821E-15
1321.400  1.319E-15
1321.600  1.318E-15
1321.800  3.981E-15
1322.000  6.182E-15
1322.200  5.535E-15
1322.400  4.507E-15
1322.600  4.703E-15
1322.800  1.316E-15
1323.000  5.341E-15
1323.200  7.869E-15
1323.400  3.095E-14
1323.600  1.152E-14
1323.800  1.316E-15
1324.000  1.316E-15
1324.200  1.316E-15
1324.400  4.567E-15
1324.600  5.785E-15
1324.800  5.296E-15
1325.000  1.319E-15
1325.200  5.679E-15
1325.400  4.996E-15
1325.600  5.285E-15
1325.800  4.028E-15
1326.000  1.324E-15
1326.200  1.325E-15
1326.400  2.163E-14
1326.600  2.323E-14
1326.800  1.329E-15
1327.000  1.331E-15
1327.200  1.332E-15
1327.400  7.968E-15
1327.600  6.817E-15
1327.800  6.456E-15
1328.000  1.340E-15
1328.200  1.342E-15
1328.400  1.345E-15
1328.600  7.646E-15
1328.800  1.425E-14
1329.000  1.740E-14
1329.200  1.674E-14
1329.400  1.846E-14
1329.600  1.851E-14
1329.800  8.281E-15
1330.000  1.366E-15
1330.200  6.788E-15
1330.400  4.907E-15
1330.600  4.863E-15
1330.800  8.758E-15
1331.000  9.752E-15
1331.200  1.219E-14
1331.400  1.010E-14
1331.600  6.234E-15
1331.800  1.395E-15
1332.000  7.471E-15
1332.200  7.398E-15
1332.400  4.077E-15
1332.600  1.407E-15
1332.800  8.312E-15
1333.000  7.700E-15
1333.200  1.913E-14
1333.400  3.424E-14
1333.600  4.227E-14
1333.800  3.938E-14
1334.000  7.765E-15
1334.200  2.594E-14
1334.400  3.759E-14
1334.600  9.864E-14
1334.800  3.575E-14
1335.000  1.434E-15
1335.200  9.858E-15
1335.400  2.712E-14
1335.600  7.456E-14
1335.800  1.214E-13
1336.000  3.517E-14
1336.200  6.369E-15
1336.400  1.440E-15
1336.600  8.271E-15
1336.800  8.592E-15
1337.000  4.902E-15
1337.200  4.750E-15
1337.400  8.884E-15
1337.600  5.359E-15
1337.800  1.323E-14
1338.000  3.944E-14
1338.200  4.637E-14
1338.400  7.268E-14
1338.600  5.628E-14
1338.800  2.748E-14
1339.000  2.489E-14
1339.200  3.456E-14
1339.400  4.899E-14
1339.600  4.812E-14
1339.800  2.810E-14
1340.000  1.241E-14
1340.200  1.420E-14
1340.400  7.053E-15
1340.600  8.417E-15
1340.800  1.428E-14
1341.000  3.699E-14
1341.200  2.628E-14
1341.400  2.041E-14
1341.600  4.178E-14
1341.800  1.744E-14
1342.000  5.222E-14
1342.200  1.007E-13
1342.400  1.763E-14
1342.600  4.377E-14
1342.800  2.838E-14
1343.000  1.014E-14
1343.200  1.034E-14
1343.400  5.500E-14
1343.600  1.523E-14
1343.800  8.352E-15
1344.000  1.405E-15
1344.200  1.405E-15
1344.400  9.187E-15
1344.600  6.308E-15
1344.800  1.264E-14
1345.000  1.061E-14
1345.200  5.141E-15
1345.400  2.076E-14
1345.600  1.465E-14
1345.800  1.024E-14
1346.000  1.065E-14
1346.200  8.702E-15
1346.400  6.230E-15
1346.600  5.108E-15
1346.800  1.184E-13
1347.000  1.277E-13
1347.200  1.790E-14
1347.400  1.396E-15
1347.600  1.396E-15
1347.800  9.851E-15
1348.000  1.010E-14
1348.200  5.524E-15
1348.400  1.010E-14
1348.600  5.486E-14
1348.800  2.346E-14
1349.000  4.250E-15
1349.200  4.606E-15
1349.400  5.219E-15
1349.600  5.240E-15
1349.800  1.405E-15
1350.000  4.619E-15
1350.200  3.835E-15
1350.400  4.276E-15
1350.600  4.525E-15
1350.800  5.677E-15
1351.000  7.372E-15
1351.200  7.805E-15
1351.400  6.683E-14
1351.600  8.517E-14
1351.800  1.425E-15
1352.000  7.392E-15
1352.200  8.497E-15
1352.400  1.142E-14
1352.600  1.228E-14
1352.800  1.439E-15
1353.000  6.708E-15
1353.200  5.850E-15
1353.400  8.291E-15
1353.600  1.453E-15
1353.800  8.245E-15
1354.000  1.197E-14
1354.200  1.291E-14
1354.400  1.468E-15
1354.600  7.984E-15
1354.800  1.007E-14
1355.000  8.775E-15
1355.200  9.795E-15
1355.400  3.986E-13
1355.600  3.835E-13
1355.800  5.659E-14
1356.000  7.358E-15
1356.200  1.105E-14
1356.400  6.938E-15
1356.600  9.004E-15
1356.800  8.464E-15
1357.000  1.862E-14
1357.200  6.855E-15
1357.400  1.588E-14
1357.600  2.366E-14
1357.800  4.540E-15
1358.000  8.234E-15
1358.200  2.675E-14
1358.400  1.492E-13
1358.600  2.940E-14
1358.800  1.462E-14
1359.000  2.205E-14
1359.200  3.513E-14
1359.400  1.399E-14
1359.600  1.093E-14
1359.800  1.055E-14
1360.000  1.039E-13
1360.200  8.624E-14
1360.400  5.044E-15
1360.600  1.580E-15
1360.800  6.539E-15
1361.000  4.901E-15
1361.200  1.586E-15
1361.400  5.896E-15
1361.600  7.673E-15
1361.800  6.076E-15
1362.000  6.647E-15
1362.200  7.365E-15
1362.400  4.846E-15
1362.600  8.998E-15
1362.800  6.300E-15
1363.000  4.656E-15
1363.200  1.023E-14
1363.400  1.079E-14
1363.600  1.602E-15
1363.800  9.770E-15
1364.000  4.987E-14
1364.200  3.446E-14
1364.400  1.605E-15
1364.600  1.054E-14
1364.800  1.607E-15
1365.000  1.607E-15
1365.200  9.273E-15
1365.400  1.045E-14
1365.600  7.031E-15
1365.800  1.610E-15
1366.000  7.522E-15
1366.200  1.238E-13
1366.400  1.085E-13
1366.600  8.622E-15
1366.800  6.520E-15
1367.000  1.615E-15
1367.200  1.616E-15
1367.400  9.219E-15
1367.600  1.171E-14
1367.800  6.355E-15
1368.000  1.619E-15
1368.200  7.142E-15
1368.400  8.424E-15
1368.600  2.732E-14
1368.800  2.983E-14
1369.000  1.690E-14
1369.200  1.299E-14
1369.400  1.236E-14
1369.600  1.142E-14
1369.800  1.355E-14
1370.000  4.885E-15
1370.200  1.175E-14
1370.400  2.573E-14
1370.600  2.427E-14
1370.800  8.614E-15
1371.000  4.846E-15
1371.200  3.806E-14
1371.400  3.328E-14
1371.600  9.695E-15
1371.800  4.464E-15
1372.000  5.053E-15
1372.200  5.337E-15
1372.400  1.121E-14
1372.600  9.966E-15
1372.800  5.827E-15
1373.000  1.240E-14
1373.200  7.767E-15
1373.400  7.879E-15
1373.600  1.632E-15
1373.800  9.788E-15
1374.000  5.164E-15
1374.200  9.068E-15
1374.400  6.627E-15
1374.600  6.751E-15
1374.800  1.029E-14
1375.000  1.068E-14
1375.200  9.170E-15
1375.400  7.300E-15
1375.600  1.747E-14
1375.800  1.833E-14
1376.000  1.082E-14
1376.200  1.003E-14
1376.400  7.392E-15
1376.600  8.481E-15
1376.800  1.529E-14
1377.000  3.317E-14
1377.200  3.032E-14
1377.400  4.117E-14
1377.600  4.112E-14
1377.800  2.224E-14
1378.000  2.471E-14
1378.200  3.565E-14
1378.400  1.532E-13
1378.600  1.165E-13
1378.800  2.284E-14
1379.000  2.308E-14
1379.200  3.700E-14
1379.400  8.787E-15
1379.600  1.973E-14
1379.800  1.909E-14
1380.000  8.849E-14
1380.200  1.035E-13
1380.400  2.286E-14
1380.600  1.278E-14
1380.800  2.289E-14
1381.000  2.880E-14
1381.200  1.152E-13
1381.400  1.557E-13
1381.600  3.019E-14
1381.800  9.148E-15
1382.000  6.700E-15
1382.200  1.258E-14
1382.400  1.228E-13
1382.600  1.296E-13
1382.800  1.731E-14
1383.000  1.017E-14
1383.200  4.947E-15
1383.400  1.067E-14
1383.600  7.512E-15
1383.800  6.137E-15
1384.000  1.286E-14
1384.200  1.492E-14
1384.400  1.457E-14
1384.600  3.186E-14
1384.800  2.911E-14
1385.000  5.494E-15
1385.200  6.033E-15
1385.400  5.243E-15
1385.600  4.888E-15
1385.800  4.814E-15
1386.000  6.730E-15
1386.200  1.908E-14
1386.400  2.813E-14
1386.600  1.012E-14
1386.800  6.117E-15
1387.000  9.737E-15
1387.200  1.318E-14
1387.400  7.962E-15
1387.600  6.118E-15
1387.800  5.221E-15
1388.000  1.655E-15
1388.200  6.957E-15
1388.400  7.191E-15
1388.600  1.656E-15
1388.800  6.624E-15
1389.000  7.485E-15
1389.200  1.656E-15
1389.400  9.839E-15
1389.600  8.343E-15
1389.800  9.282E-15
1390.000  1.118E-14
1390.200  6.386E-14
1390.400  1.658E-15
1390.600  1.658E-15
1390.800  1.658E-15
1391.000  1.658E-15
1391.200  8.054E-15
1391.400  1.225E-14
1391.600  8.168E-15
1391.800  1.272E-14
1392.000  1.660E-15
1392.200  1.660E-15
1392.400  7.335E-15
1392.600  7.844E-15
1392.800  6.815E-15
1393.000  1.146E-14
1393.200  1.791E-14
1393.400  4.945E-14
1393.600  9.445E-14
1393.800  7.555E-14
1394.000  3.849E-14
1394.200  1.309E-14
1394.400  1.517E-14
1394.600  1.375E-14
1394.800  1.664E-15
1395.000  6.645E-15
1395.200  6.619E-15
1395.400  5.043E-15
1395.600  6.275E-15
1395.800  1.665E-15
1396.000  6.938E-15
1396.200  8.858E-15
1396.400  5.874E-15
1396.600  7.012E-15
1396.800  7.476E-15
1397.000  5.229E-15
1397.200  8.275E-15
1397.400  7.227E-15
1397.600  5.204E-15
1397.800  4.916E-15
1398.000  7.569E-15
1398.200  6.523E-15
1398.400  7.083E-15
1398.600  1.668E-15
1398.800  3.715E-14
1399.000  8.987E-15
1399.200  9.345E-15
1399.400  5.087E-15
1399.600  7.864E-15
1399.800  1.375E-14
1400.000  6.162E-15
1400.200  7.713E-15
1400.400  9.281E-15
1400.600  7.560E-15
1400.800  1.018E-14
1401.000  1.774E-14
1401.200  1.647E-14
1401.400  2.773E-14
1401.600  1.009E-14
1401.800  5.744E-15
1402.000  9.453E-15
1402.200  9.972E-15
1402.400  7.690E-14
1402.600  8.848E-14
1402.800  6.240E-14
1403.000  8.538E-14
1403.200  1.459E-14
1403.400  1.363E-14
1403.600  1.691E-15
1403.800  1.693E-15
1404.000  1.390E-14
1404.200  1.696E-15
1404.400  1.403E-14
1404.600  1.790E-14
1404.800  2.368E-14
1405.000  1.060E-14
1405.200  9.345E-15
1405.400  8.618E-15
1405.600  1.166E-14
1405.800  1.043E-14
1406.000  1.222E-14
1406.200  1.187E-14
1406.400  3.271E-14
1406.600  1.817E-14
1406.800  1.721E-15
1407.000  3.614E-14
1407.200  1.193E-14
1407.400  6.866E-15
1407.600  1.727E-15
1407.800  5.641E-15
1408.000  2.233E-14
1408.200  1.867E-14
1408.400  8.852E-15
1408.600  1.697E-14
1408.800  2.680E-14
1409.000  3.283E-14
1409.200  3.287E-14
1409.400  2.272E-14
1409.600  1.293E-14
1409.800  1.413E-14
1410.000  8.974E-15
1410.200  6.688E-15
1410.400  2.162E-14
1410.600  2.178E-14
1410.800  9.674E-15
1411.000  7.145E-15
1411.200  1.375E-14
1411.400  6.738E-15
1411.600  1.036E-14
1411.800  2.479E-14
1412.000  1.258E-14
1412.200  1.214E-14
1412.400  1.375E-14
1412.600  6.304E-15
1412.800  1.756E-15
1413.000  5.678E-15
1413.200  7.333E-15
1413.400  8.849E-15
1413.600  9.756E-15
1413.800  6.840E-15
1414.000  8.736E-15
1414.200  7.360E-15
1414.400  7.226E-15
1414.600  6.952E-15
1414.800  7.040E-15
1415.000  1.100E-14
1415.200  1.124E-14
1415.400  1.620E-14
1415.600  1.141E-14
1415.800  1.136E-14
1416.000  1.030E-14
1416.200  1.124E-14
1416.400  1.381E-14
1416.600  1.779E-15
1416.800  9.111E-15
1417.000  1.306E-14
1417.200  2.230E-14
1417.400  1.454E-14
1417.600  2.387E-14
1417.800  1.069E-14
1418.000  1.576E-14
1418.200  1.469E-14
1418.400  3.552E-14
1418.600  3.631E-14
1418.800  1.801E-15
1419.000  1.133E-14
1419.200  5.163E-14
1419.400  3.808E-14
1419.600  1.654E-14
1419.800  1.458E-14
1420.000  1.852E-14
1420.200  1.768E-14
1420.400  2.800E-14
1420.600  1.842E-14
1420.800  1.568E-14
1421.000  2.677E-14
1421.200  2.598E-14
1421.400  1.972E-14
1421.600  1.130E-14
1421.800  1.226E-14
1422.000  1.425E-14
1422.200  9.931E-14
1422.400  4.994E-14
1422.600  8.522E-15
1422.800  9.977E-15
1423.000  1.477E-14
1423.200  6.733E-15
1423.400  6.101E-14
1423.600  5.454E-14
1423.800  1.244E-14
1424.000  5.958E-15
1424.200  1.219E-14
1424.400  6.602E-15
1424.600  1.860E-15
1424.800  5.432E-14
1425.000  5.487E-14
1425.200  3.800E-14
1425.400  5.380E-15
1425.600  1.167E-14
1425.800  2.317E-14
1426.000  7.840E-15
1426.200  7.496E-15
1426.400  9.719E-15
1426.600  7.334E-15
1426.800  1.070E-14
1427.000  1.322E-14
1427.200  9.968E-15
1427.400  1.867E-14
1427.600  1.324E-14
1427.800  1.073E-14
1428.000  7.998E-15
1428.200  1.261E-14
1428.400  7.837E-15
1428.600  7.965E-15
1428.800  9.375E-15
1429.000  8.394E-15
1429.200  7.728E-15
1429.400  1.351E-14
1429.600  1.349E-14
1429.800  1.860E-15
1430.000  1.859E-15
1430.200  1.858E-15
1430.400  3.021E-14
1430.600  2.807E-14
1430.800  3.131E-14
1431.000  2.808E-14
1431.200  1.854E-15
1431.400  2.295E-14
1431.600  2.043E-14
1431.800  1.025E-14
1432.000  2.181E-14
1432.200  1.766E-14
1432.400  2.102E-14
1432.600  1.751E-14
1432.800  9.802E-15
1433.000  3.341E-14
1433.200  4.402E-14
1433.400  1.698E-14
1433.600  1.062E-14
1433.800  8.364E-15
1434.000  1.605E-14
1434.200  1.670E-14
1434.400  1.785E-14
1434.600  9.774E-15
1434.800  1.838E-15
1435.000  6.111E-15
1435.200  9.271E-15
1435.400  8.571E-15
1435.600  8.541E-15
1435.800  1.835E-15
1436.000  8.682E-15
1436.200  1.164E-14
1436.400  9.279E-15
1436.600  8.408E-15
1436.800  3.965E-14
1437.000  3.011E-14
1437.200  6.115E-15
1437.400  8.668E-15
1437.600  8.411E-15
1437.800  5.099E-15
1438.000  7.357E-15
1438.200  5.735E-15
1438.400  6.665E-15
1438.600  7.118E-15
1438.800  8.451E-15
1439.000  6.850E-15
1439.200  1.031E-14
1439.400  1.690E-14
1439.600  9.237E-15
1439.800  7.878E-15
1440.000  8.350E-15
1440.200  6.448E-15
1440.400  6.794E-15
1440.600  6.888E-15
1440.800  1.359E-14
1441.000  1.022E-14
1441.200  7.769E-15
1441.400  7.289E-15
1441.600  6.605E-15
1441.800  7.997E-15
1442.000  6.840E-15
1442.200  1.836E-15
1442.400  7.552E-15
1442.600  1.158E-14
1442.800  1.577E-14
1443.000  6.356E-15
1443.200  6.184E-15
1443.400  7.671E-15
1443.600  1.843E-15
1443.800  1.531E-14
1444.000  1.846E-15
1444.200  2.465E-14
1444.400  1.228E-14
1444.600  1.850E-15
1444.800  1.851E-15
1445.000  1.048E-14
1445.200  1.345E-14
1445.400  1.856E-15
1445.600  1.115E-14
1445.800  2.111E-14
1446.000  1.023E-13
1446.200  2.801E-14
1446.400  1.865E-15
1446.600  1.867E-15
1446.800  1.869E-15
1447.000  9.044E-15
1447.200  1.873E-15
1447.400  8.144E-15
1447.600  8.144E-15
1447.800  7.414E-15
1448.000  1.425E-14
1448.200  1.247E-14
1448.400  1.103E-14
1448.600  1.103E-14
1448.800  1.889E-15
1449.000  7.727E-15
1449.200  9.434E-15
1449.400  6.657E-15
1449.600  1.896E-15
1449.800  1.898E-15
1450.000  9.137E-15
1450.200  1.082E-14
1450.400  1.030E-14
1450.600  8.290E-15
1450.800  8.309E-15
1451.000  1.085E-14
1451.200  7.144E-15
1451.400  1.910E-15
1451.600  6.882E-15
1451.800  5.970E-15
1452.000  9.498E-15
1452.200  7.219E-15
1452.400  7.706E-15
1452.600  1.399E-14
1452.800  4.696E-14
1453.000  1.704E-14
1453.200  9.817E-15
1453.400  1.368E-14
1453.600  1.885E-14
1453.800  1.175E-14
1454.000  6.508E-15
1454.200  6.403E-15
1454.400  9.771E-15
1454.600  9.771E-15
1454.800  1.163E-14
1455.000  9.702E-15
1455.200  7.095E-15
1455.400  1.932E-15
1455.600  6.909E-15
1455.800  1.024E-14
1456.000  9.881E-15
1456.200  7.840E-15
1456.400  6.016E-15
1456.600  8.269E-15
1456.800  1.223E-14
1457.000  5.907E-15
1457.200  1.028E-14
1457.400  1.177E-14
1457.600  8.177E-15
1457.800  1.954E-15
1458.000  1.956E-15
1458.200  1.958E-15
1458.400  1.961E-15
1458.600  1.963E-15
1458.800  1.239E-14
1459.000  1.694E-14
1459.200  2.814E-14
1459.400  1.639E-14
1459.600  1.978E-15
1459.800  1.191E-14
1460.000  3.678E-14
1460.200  2.463E-14
1460.400  1.432E-14
1460.600  1.995E-15
1460.800  1.999E-15
1461.000  1.016E-14
1461.200  8.742E-15
1461.400  1.744E-14
1461.600  1.018E-14
1461.800  9.825E-15
1462.000  1.413E-14
1462.200  9.614E-15
1462.400  1.090E-14
1462.600  1.011E-14
1462.800  2.039E-15
1463.000  3.091E-14
1463.200  5.143E-14
1463.400  3.277E-14
1463.600  2.490E-14
1463.800  2.946E-14
1464.000  1.231E-14
1464.200  9.619E-15
1464.400  1.459E-14
1464.600  4.023E-14
1464.800  2.931E-14
1465.000  2.893E-14
1465.200  1.031E-14
1465.400  1.058E-14
1465.600  8.989E-15
1465.800  9.380E-15
1466.000  8.225E-15
1466.200  8.250E-15
1466.400  1.351E-14
1466.600  1.365E-14
1466.800  2.129E-14
1467.000  2.299E-14
1467.200  2.501E-14
1467.400  2.925E-14
1467.600  1.221E-14
1467.800  1.138E-14
1468.000  1.430E-14
1468.200  2.257E-14
1468.400  1.832E-14
1468.600  1.187E-14
1468.800  6.892E-15
1469.000  9.395E-15
1469.200  8.742E-15
1469.400  1.198E-14
1469.600  8.965E-15
1469.800  1.609E-14
1470.000  2.084E-14
1470.200  6.494E-15
1470.400  9.094E-15
1470.600  1.010E-14
1470.800  7.064E-15
1471.000  8.541E-15
1471.200  1.121E-14
1471.400  8.884E-15
1471.600  1.930E-13
1471.800  1.993E-13
1472.000  1.871E-14
1472.200  1.957E-14
1472.400  4.875E-14
1472.600  1.628E-14
1472.800  8.395E-14
1473.000  6.807E-14
1473.200  1.199E-14
1473.400  2.127E-15
1473.600  3.427E-14
1473.800  1.197E-13
1474.000  1.100E-13
1474.200  9.985E-14
1474.400  6.808E-14
1474.600  1.559E-14
1474.800  1.071E-14
1475.000  1.060E-14
1475.200  1.425E-14
1475.400  1.478E-14
1475.600  1.211E-14
1475.800  1.118E-14
1476.000  9.469E-15
1476.200  2.132E-15
1476.400  2.133E-15
1476.600  1.125E-14
1476.800  1.069E-14
1477.000  1.061E-14
1477.200  2.134E-15
1477.400  2.134E-15
1477.600  9.885E-15
1477.800  1.141E-14
1478.000  9.953E-15
1478.200  2.136E-15
1478.400  2.136E-15
1478.600  2.136E-15
1478.800  7.448E-15
1479.000  2.137E-15
1479.200  2.137E-15
1479.400  8.711E-15
1479.600  9.103E-15
1479.800  6.715E-15
1480.000  1.524E-14
1480.200  1.114E-14
1480.400  1.227E-14
1480.600  1.423E-14
1480.800  1.116E-14
1481.000  1.487E-14
1481.200  7.627E-15
1481.400  4.869E-14
1481.600  7.381E-14
1481.800  3.372E-14
1482.000  7.309E-15
1482.200  6.492E-15
1482.400  8.889E-15
1482.600  6.678E-15
1482.800  9.692E-14
1483.000  9.988E-14
1483.200  3.601E-14
1483.400  6.389E-15
1483.600  7.012E-15
1483.800  8.464E-15
1484.000  1.030E-14
1484.200  8.690E-15
1484.400  8.635E-15
1484.600  1.290E-14
1484.800  8.206E-15
1485.000  8.312E-15
1485.200  1.468E-14
1485.400  2.796E-14
1485.600  2.796E-14
1485.800  8.983E-15
1486.000  9.106E-15
1486.200  1.967E-14
1486.400  2.148E-14
1486.600  1.826E-14
1486.800  1.089E-14
1487.000  3.711E-14
1487.200  1.807E-14
1487.400  2.168E-15
1487.600  2.169E-15
1487.800  2.171E-15
1488.000  1.715E-14
1488.200  1.713E-14
1488.400  1.394E-14
1488.600  2.213E-14
1488.800  2.281E-14
1489.000  2.183E-15
1489.200  2.185E-15
1489.400  7.230E-14
1489.600  3.693E-14
1489.800  1.847E-14
1490.000  1.616E-14
1490.200  1.250E-14
1490.400  2.199E-15
1490.600  2.202E-15
1490.800  2.204E-15
1491.000  1.252E-14
1491.200  1.008E-14
1491.400  2.211E-15
1491.600  1.633E-14
1491.800  1.458E-14
1492.000  1.240E-14
1492.200  1.613E-14
1492.400  1.587E-14
1492.600  2.222E-15
1492.800  2.224E-15
1493.000  1.188E-14
1493.200  1.200E-14
1493.400  8.246E-15
1493.600  1.091E-14
1493.800  1.465E-14
1494.000  8.960E-15
1494.200  9.884E-15
1494.400  8.297E-15
1494.600  9.494E-15
1494.800  1.214E-14
1495.000  1.017E-14
1495.200  1.035E-14
1495.400  1.695E-14
1495.600  1.662E-14
1495.800  1.213E-14
1496.000  1.213E-14
1496.200  7.172E-15
1496.400  7.443E-15
1496.600  2.248E-15
1496.800  8.866E-15
1497.000  1.078E-14
1497.200  8.468E-15
1497.400  8.271E-15
1497.600  8.619E-15
1497.800  1.047E-14
1498.000  1.186E-14
1498.200  1.164E-14
1498.400  9.278E-15
1498.600  1.015E-14
1498.800  1.177E-14
1499.000  8.382E-15
1499.200  1.069E-14
1499.400  1.515E-14
1499.600  1.267E-14
1499.800  1.359E-14
1500.000  9.618E-15
1500.200  8.637E-15
1500.400  8.908E-15
1500.600  1.236E-14
1500.800  1.168E-14
1501.000  1.328E-14
1501.200  1.338E-14
1501.400  1.142E-14
1501.600  8.151E-15
1501.800  9.266E-15
1502.000  2.278E-15
1502.200  2.280E-15
1502.400  2.283E-15
1502.600  2.081E-14
1502.800  2.066E-14
1503.000  2.143E-14
1503.200  2.694E-14
1503.400  2.811E-14
1503.600  2.210E-14
1503.800  2.027E-14
1504.000  1.246E-14
1504.200  2.308E-15
1504.400  1.515E-14
1504.600  9.349E-14
1504.800  2.902E-14
1505.000  1.757E-14
1505.200  1.682E-14
1505.400  1.693E-14
1505.600  1.952E-14
1505.800  1.055E-14
1506.000  2.805E-14
1506.200  3.444E-14
1506.400  2.536E-14
1506.600  2.918E-14
1506.800  6.889E-14
1507.000  1.132E-13
1507.200  7.382E-14
1507.400  2.198E-14
1507.600  2.471E-14
1507.800  2.446E-14
1508.000  2.717E-14
1508.200  1.606E-14
1508.400  2.182E-14
1508.600  2.182E-14
1508.800  3.744E-14
1509.000  3.250E-14
1509.200  4.203E-14
1509.400  2.381E-14
1509.600  1.657E-14
1509.800  1.352E-14
1510.000  5.250E-14
1510.200  5.021E-14
1510.400  2.368E-14
1510.600  2.783E-14
1510.800  1.724E-14
1511.000  1.537E-14
1511.200  2.092E-14
1511.400  4.626E-14
1511.600  1.064E-14
1511.800  1.314E-14
1512.000  1.120E-14
1512.200  1.253E-14
1512.400  9.698E-15
1512.600  9.465E-15
1512.800  1.440E-14
1513.000  1.771E-14
1513.200  1.261E-14
1513.400  1.127E-14
1513.600  9.490E-15
1513.800  3.059E-14
1514.000  1.957E-14
1514.200  1.111E-14
1514.400  1.013E-14
1514.600  9.146E-15
1514.800  1.195E-14
1515.000  1.239E-14
1515.200  1.179E-14
1515.400  1.042E-14
1515.600  2.127E-14
1515.800  1.195E-14
1516.000  2.071E-14
1516.200  1.935E-14
1516.400  1.057E-14
1516.600  9.997E-15
1516.800  1.027E-14
1517.000  1.026E-14
1517.200  1.097E-14
1517.400  2.485E-15
1517.600  2.487E-15
1517.800  1.575E-14
1518.000  2.492E-15
1518.200  2.494E-15
1518.400  1.514E-14
1518.600  2.499E-15
1518.800  2.502E-15
1519.000  1.647E-14
1519.200  2.508E-15
1519.400  1.492E-14
1519.600  1.319E-14
1519.800  2.517E-15
1520.000  2.520E-15
1520.200  1.509E-14
1520.400  1.328E-14
1520.600  1.390E-14
1520.800  1.648E-14
1521.000  1.857E-14
1521.200  1.790E-14
1521.400  1.247E-14
1521.600  1.695E-14
1521.800  1.642E-14
1522.000  1.035E-14
1522.200  1.161E-14
1522.400  1.461E-14
1522.600  1.257E-14
1522.800  9.153E-15
1523.000  1.646E-14
1523.200  1.646E-14
1523.400  1.573E-14
1523.600  2.589E-15
1523.800  1.497E-14
1524.000  9.204E-15
1524.200  1.026E-14
1524.400  4.828E-14
1524.600  4.757E-14
1524.800  1.026E-14
1525.000  1.733E-14
1525.200  1.422E-14
1525.400  2.619E-15
1525.600  1.216E-14
1525.800  2.142E-14
1526.000  1.486E-14
1526.200  1.203E-14
1526.400  2.101E-14
1526.600  2.417E-14
1526.800  3.892E-14
1527.000  1.090E-14
1527.200  2.216E-14
1527.400  1.931E-14
1527.600  1.477E-14
1527.800  9.680E-15
1528.000  9.528E-15
1528.200  2.509E-14
1528.400  1.537E-14
1528.600  8.342E-15
1528.800  1.102E-14
1529.000  1.663E-14
1529.200  1.601E-14
1529.400  2.285E-14
1529.600  1.305E-14
1529.800  1.266E-14
1530.000  2.662E-15
1530.200  2.663E-15
1530.400  1.164E-14
1530.600  1.758E-14
1530.800  1.951E-14
1531.000  1.747E-14
1531.200  7.513E-15
1531.400  1.817E-14
1531.600  1.819E-14
1531.800  8.388E-15
1532.000  9.004E-15
1532.200  1.854E-14
1532.400  2.763E-14
1532.600  2.159E-14
1532.800  1.158E-14
1533.000  2.675E-15
1533.200  2.148E-14
1533.400  3.800E-14
1533.600  3.560E-14
1533.800  2.678E-15
1534.000  2.044E-14
1534.200  2.680E-15
1534.400  2.478E-14
1534.600  5.713E-14
1534.800  5.723E-14
1535.000  4.072E-14
1535.200  2.685E-15
1535.400  2.686E-15
1535.600  2.687E-15
1535.800  2.689E-15
1536.000  2.690E-15
1536.200  2.662E-14
1536.400  1.571E-14
1536.600  2.693E-15
1536.800  2.694E-15
1537.000  1.401E-14
1537.200  1.763E-14
1537.400  1.406E-14
1537.600  1.280E-14
1537.800  1.738E-14
1538.000  1.129E-14
1538.200  2.702E-15
1538.400  1.119E-14
1538.600  1.260E-14
1538.800  3.813E-14
1539.000  3.881E-14
1539.200  2.177E-14
1539.400  1.250E-14
1539.600  2.709E-15
1539.800  2.709E-15
1540.000  1.146E-14
1540.200  2.036E-14
1540.400  2.712E-15
1540.600  1.722E-14
1540.800  3.317E-14
1541.000  3.213E-14
1541.200  1.997E-14
1541.400  1.333E-14
1541.600  2.716E-15
1541.800  2.716E-15
1542.000  3.439E-14
1542.200  2.924E-14
1542.400  1.085E-14
1542.600  8.903E-15
1542.800  2.719E-15
1543.000  1.120E-14
1543.200  1.425E-14
1543.400  9.512E-15
1543.600  1.113E-14
1543.800  1.017E-14
1544.000  8.671E-15
1544.200  8.582E-15
1544.400  8.173E-15
1544.600  2.722E-15
1544.800  8.073E-15
1545.000  2.723E-15
1545.200  2.724E-15
1545.400  2.724E-15
1545.600  2.725E-15
1545.800  2.726E-15
1546.000  2.726E-15
1546.200  2.727E-15
1546.400  1.198E-14
1546.600  1.377E-14
1546.800  7.895E-15
1547.000  1.942E-14
1547.200  4.929E-14
1547.400  1.308E-14
1547.600  3.402E-14
1547.800  6.218E-14
1548.000  8.234E-14
1548.200  8.592E-14
1548.400  4.680E-14
1548.600  1.770E-14
1548.800  1.227E-14
1549.000  2.747E-15
1549.200  2.749E-15
1549.400  2.751E-15
1549.600  2.753E-15
1549.800  2.755E-15
1550.000  2.757E-15
1550.200  2.760E-15
1550.400  4.351E-14
1550.600  5.267E-14
1550.800  4.480E-14
1551.000  3.112E-14
1551.200  2.772E-15
1551.400  2.775E-15
1551.600  2.778E-15
1551.800  2.781E-15
1552.000  1.578E-14
1552.200  2.786E-15
1552.400  2.790E-15
1552.600  2.793E-15
1552.800  2.796E-15
1553.000  2.115E-14
1553.200  1.616E-14
1553.400  1.369E-14
1553.600  2.809E-15
1553.800  2.812E-15
1554.000  2.815E-15
1554.200  2.819E-15
1554.400  1.844E-14
1554.600  1.703E-14
1554.800  2.828E-15
1555.000  2.831E-15
1555.200  2.833E-15
1555.400  2.836E-15
1555.600  2.839E-15
1555.800  2.841E-15
1556.000  2.844E-15
1556.200  1.106E-14
1556.400  2.849E-15
1556.600  2.538E-14
1556.800  1.814E-14
1557.000  2.856E-15
1557.200  9.738E-15
1557.400  2.860E-15
1557.600  2.861E-15
1557.800  2.863E-15
1558.000  2.865E-15
1558.200  2.867E-15
1558.400  2.869E-15
1558.600  2.870E-15
1558.800  2.872E-15
1559.000  2.873E-15
1559.200  1.089E-14
1559.400  1.766E-14
1559.600  1.764E-14
1559.800  1.979E-14
1560.000  1.188E-14
1560.200  2.029E-14
1560.400  2.196E-14
1560.600  2.171E-14
1560.800  2.099E-14
1561.000  2.365E-14
1561.200  2.766E-14
1561.400  2.449E-14
1561.600  9.564E-15
1561.800  9.641E-15
1562.000  9.435E-15
1562.200  4.091E-14
1562.400  2.958E-14
1562.600  2.893E-15
1562.800  2.895E-15
1563.000  9.773E-15
1563.200  9.233E-15
1563.400  2.899E-15
1563.600  2.900E-15
1563.800  2.902E-15
1564.000  2.903E-15
1564.200  2.905E-15
1564.400  8.876E-15
1564.600  2.909E-15
1564.800  2.911E-15
1565.000  2.913E-15
1565.200  2.914E-15
1565.400  2.918E-15
1565.600  2.920E-15
1565.800  2.922E-15
1566.000  2.925E-15
1566.200  2.927E-15
1566.400  2.930E-15
1566.600  2.933E-15
1566.800  2.936E-15
1567.000  1.864E-14
1567.200  2.942E-15
1567.400  1.673E-14
1567.600  2.301E-14
1567.800  2.951E-15
1568.000  2.955E-15
1568.200  2.958E-15
1568.400  2.962E-15
1568.600  2.965E-15
1568.800  2.969E-15
1569.000  2.973E-15
1569.200  2.977E-15
1569.400  2.981E-15
1569.600  2.985E-15
1569.800  2.989E-15
1570.000  1.801E-14
1570.200  2.040E-14
1570.400  1.681E-14
1570.600  1.683E-14
1570.800  3.008E-15
1571.000  3.012E-15
1571.200  3.015E-15
1571.400  3.019E-15
1571.600  3.022E-15
1571.800  3.025E-15
1572.000  1.185E-14
1572.200  1.385E-14
1572.400  1.113E-14
1572.600  1.434E-14
1572.800  1.283E-14
1573.000  3.043E-15
1573.200  1.380E-14
1573.400  3.049E-15
1573.600  3.051E-15
1573.800  1.784E-14
1574.000  1.853E-14
1574.200  1.665E-14
1574.400  3.061E-15
1574.600  3.063E-15
1574.800  3.065E-15
1575.000  1.309E-14
1575.200  1.277E-14
1575.400  1.163E-14
1575.600  3.072E-15
1575.800  3.073E-15
1576.000  3.075E-15
1576.200  1.400E-14
1576.400  3.078E-15
1576.600  1.127E-14
1576.800  3.080E-15
1577.000  1.020E-14
1577.200  1.010E-14
1577.400  3.083E-15
1577.600  9.964E-15
1577.800  3.085E-15
1578.000  3.085E-15
1578.200  1.013E-14
1578.400  3.087E-15
1578.600  3.088E-15
1578.800  1.175E-14
1579.000  3.089E-15
1579.200  3.090E-15
1579.400  3.090E-15
1579.600  3.091E-15
1579.800  3.092E-15
1580.000  3.094E-15
1580.200  1.547E-14
1580.400  3.097E-15
1580.600  3.098E-15
1580.800  3.100E-15
1581.000  1.113E-14
1581.200  1.044E-14
1581.400  3.107E-15
1581.600  3.110E-15
1581.800  3.113E-15
1582.200  3.119E-15
1582.400  3.122E-15
1582.600  3.126E-15
1582.800  3.129E-15
1583.000  3.133E-15
1583.200  3.137E-15
1583.400  3.141E-15
1583.600  3.145E-15
1583.800  3.150E-15
1584.000  3.154E-15
1584.200  3.159E-15
1584.400  3.164E-15
1584.600  3.169E-15
1584.800  3.174E-15
1585.000  3.180E-15
1585.200  3.185E-15
1585.400  3.191E-15
1585.600  3.197E-15
1585.800  3.204E-15
1586.000  3.209E-15
1586.200  1.630E-14
1586.400  1.860E-14
1586.600  3.229E-15
1586.800  3.236E-15
1587.000  3.243E-15
1587.200  3.250E-15
1587.400  3.258E-15
1587.600  1.470E-14
1587.800  3.273E-15
1588.000  3.280E-15
1588.200  2.220E-14
1588.400  2.658E-14
1588.600  1.891E-14
1588.800  1.776E-14
1589.000  2.080E-14
1589.200  1.862E-14
1589.400  3.332E-15
1589.600  3.339E-15
1589.800  3.347E-15
1590.000  3.353E-15
1590.200  3.360E-15
1590.400  3.366E-15
1590.600  3.372E-15
1590.800  1.241E-14
1591.000  1.330E-14
1591.200  1.530E-14
1591.400  3.396E-15
1591.600  3.401E-15
1591.800  1.195E-14
1592.000  1.150E-14
1592.200  3.416E-15
1592.400  3.421E-15
1592.600  3.425E-15
1592.800  3.430E-15
1593.000  2.534E-14
1593.200  2.657E-14
1593.400  3.441E-15
1593.600  3.445E-15
1593.800  3.449E-15
1594.000  3.452E-15
1594.200  3.455E-15
1594.400  1.367E-14
1594.600  1.524E-14
1594.800  1.535E-14
1595.000  3.467E-15
1595.200  3.469E-15
1595.400  1.575E-14
1595.600  3.473E-15
1595.800  3.476E-15
1596.000  1.063E-14
1596.200  1.228E-14
1596.400  3.482E-15
1596.600  3.483E-15
1596.800  1.426E-14
1597.000  1.324E-14
1597.200  3.489E-15
1597.400  3.491E-15
1597.600  3.493E-15
1597.800  3.496E-15
1598.000  1.115E-14
1598.200  1.115E-14
1598.400  3.503E-15
1598.600  3.505E-15
1598.800  3.508E-15
1599.400  3.516E-15
1599.600  3.519E-15
1599.800  3.523E-15
1600.000  3.527E-15
1600.200  3.530E-15
1600.400  3.534E-15
1600.600  3.538E-15
1600.800  3.542E-15
1601.000  3.547E-15
1601.200  3.551E-15
1601.400  2.703E-14
1601.600  2.503E-14
1601.800  3.566E-15
1602.000  3.571E-15
1602.200  3.576E-15
1602.400  2.329E-14
1602.600  3.187E-14
1602.800  2.900E-14
1603.000  3.581E-14
1603.200  3.581E-14
1603.400  3.619E-14
1603.600  3.152E-14
1603.800  2.755E-14
1604.000  3.632E-15
1604.200  1.927E-14
1604.400  2.025E-14
1604.600  3.653E-15
1604.800  2.105E-14
1605.000  1.682E-14
1605.200  3.675E-15
1605.400  3.683E-15
1605.600  2.980E-14
1605.800  3.699E-15
1606.000  3.706E-15
1606.200  3.713E-15
1606.400  2.596E-14
1606.600  5.402E-14
1606.800  6.362E-14
1607.000  1.626E-14
1607.200  2.675E-14
1607.400  2.751E-14
1607.600  1.366E-14
1607.800  2.084E-14
1608.000  4.334E-14
1608.200  3.102E-14
1608.400  3.786E-15
1608.600  3.792E-15
1608.800  3.798E-15
1609.000  3.803E-15
1609.200  3.808E-15
1609.400  3.813E-15
1609.600  3.818E-15
1609.800  1.505E-14
1610.000  3.827E-15
1610.200  3.831E-15
1610.400  3.836E-15
1610.600  3.839E-15
1610.800  3.843E-15
1611.000  3.847E-15
1611.200  3.850E-15
1611.400  1.280E-14
1611.600  3.857E-15
1611.800  1.911E-14
1612.000  2.294E-14
1612.200  1.838E-14
1612.400  3.868E-15
1612.600  3.871E-15
1612.800  3.873E-15
1613.000  3.876E-15
1613.200  3.878E-15
1613.400  2.222E-14
1613.600  3.495E-14
1613.800  1.349E-14
1614.000  3.886E-15
1614.200  3.887E-15
1614.400  3.889E-15
1614.600  3.890E-15
1614.800  3.892E-15
1615.000  1.778E-14
1615.200  1.727E-14
1615.400  4.130E-14
1615.600  4.443E-14
1615.800  3.898E-15
1616.000  3.900E-15
1616.200  3.901E-15
1617.000  3.907E-15
1617.200  3.908E-15
1617.400  3.910E-15
1617.600  3.911E-15
1617.800  3.187E-14
1618.000  3.915E-15
1618.200  3.917E-15
1618.400  3.919E-15
1618.600  3.921E-15
1618.800  3.923E-15
1619.000  3.925E-15
1619.200  3.927E-15
1619.400  3.929E-15
1619.600  3.932E-15
1619.800  2.155E-14
1620.000  3.937E-15
1620.200  3.939E-15
1620.400  3.941E-15
1620.600  3.944E-15
1620.800  3.946E-15
1621.000  3.949E-15
1621.200  3.952E-15
1621.400  3.954E-15
1621.600  2.050E-14
1621.800  2.358E-14
1622.000  3.971E-14
1622.200  2.032E-14
1622.400  3.968E-15
1622.600  3.971E-15
1622.800  2.147E-14
1623.000  1.733E-14
1623.200  3.979E-15
1623.400  3.981E-15
1623.600  3.984E-15
1623.800  3.986E-15
1624.000  3.988E-15
1624.200  3.990E-15
1624.400  3.993E-15
1624.600  3.994E-15
1624.800  3.996E-15
1625.000  3.998E-15
1625.200  1.399E-14
1625.400  4.000E-15
1625.600  4.000E-15
1625.800  4.000E-15
1626.000  4.000E-15
1626.200  4.000E-15
1626.400  4.000E-15
1626.600  4.000E-15
1626.800  3.999E-15
1627.000  3.998E-15
1627.200  3.996E-15
1627.400  3.995E-15
1627.600  2.011E-14
1627.800  3.990E-15
1628.000  3.988E-15
1628.200  3.985E-15
1628.400  1.682E-14
1628.600  1.289E-14
1628.800  3.975E-15
1629.000  3.971E-15
1629.200  3.967E-15
1629.400  1.810E-14
1629.600  2.030E-14
1629.800  1.581E-14
1630.000  3.947E-15
1630.200  3.942E-15
1630.400  3.936E-15
1630.600  3.930E-15
1630.800  1.477E-14
1631.000  3.916E-15
1631.200  3.910E-15
1631.400  3.902E-15
1631.600  3.895E-15
1631.800  1.651E-14
1632.000  3.879E-15
1632.200  3.871E-15
1632.400  3.066E-14
1632.600  3.070E-14
1632.800  1.615E-14
1633.000  3.835E-15
1633.200  3.826E-15
1633.400  3.816E-15
1633.600  1.354E-14
1633.800  3.796E-15
1634.000  3.786E-15
1635.000  3.726E-15
1635.200  3.725E-15
1635.400  3.714E-15
1635.600  3.705E-15
1635.800  3.696E-15
1636.000  3.686E-15
1636.200  3.678E-15
1636.400  3.669E-15
1636.600  2.692E-14
1636.800  3.253E-14
1637.000  3.644E-15
1637.200  3.636E-15
1637.400  3.628E-15
1637.600  3.621E-15
1637.800  3.614E-15
1638.000  3.607E-15
1638.200  2.164E-14
1638.400  2.134E-14
1638.600  3.587E-15
1638.800  3.581E-15
1639.000  3.576E-15
1639.200  3.573E-15
1639.400  1.508E-14
1639.600  3.565E-15
1639.800  2.767E-14
1640.000  2.636E-14
1640.200  3.502E-14
1640.400  3.051E-14
1640.600  2.686E-14
1640.800  1.564E-14
1641.000  3.751E-13
1641.200  5.001E-13
1641.400  1.019E-13
1641.600  3.534E-15
1641.800  3.531E-15
1642.000  3.529E-15
1642.200  3.526E-15
1642.400  1.370E-14
1642.600  2.024E-14
1642.800  1.978E-14
1643.000  1.812E-14
1643.200  3.515E-15
1643.400  3.513E-15
1643.600  3.512E-15
1643.800  3.510E-15
1644.000  3.508E-15
1644.200  3.507E-15
1644.400  3.505E-15
1644.600  3.504E-15
1644.800  3.502E-15
1645.000  1.083E-14
1645.200  3.500E-15
1645.400  3.499E-15
1645.600  3.498E-15
1645.800  3.497E-15
1646.000  3.496E-15
1646.200  3.496E-15
1646.400  3.495E-15
1646.600  3.495E-15
1646.800  1.032E-14
1647.000  3.494E-15
1647.200  3.494E-15
1647.400  3.494E-15
1647.600  3.493E-15
1647.800  3.493E-15
1648.000  3.493E-15
1648.200  3.493E-15
1648.400  1.127E-14
1648.600  1.120E-14
1648.800  3.494E-15
1649.000  1.015E-14
1649.200  3.494E-15
1649.400  1.267E-14
1649.600  1.387E-14
1649.800  3.495E-15
1650.000  3.496E-15
1650.200  3.496E-15
1650.400  3.496E-15
1650.600  3.497E-15
1650.800  1.006E-14
1651.000  1.046E-14
1651.200  1.022E-14
1651.400  3.499E-15
1651.600  3.500E-15
1651.800  3.500E-15
1652.000  1.195E-14
1652.200  1.086E-14
1652.400  4.849E-14
1652.600  8.858E-14
1652.800  9.262E-14
1653.000  5.914E-14
1653.200  7.560E-14
1653.400  3.507E-15
1653.600  3.508E-15
1653.800  2.284E-14
1654.000  3.510E-15
1654.200  3.511E-15
1654.400  3.512E-15
1654.600  3.513E-15
1654.800  3.514E-15
1655.000  3.515E-15
1655.200  3.516E-15
1655.400  3.517E-15
1655.600  3.518E-15
1655.800  4.932E-14
1656.000  1.544E-13
1656.200  1.553E-13
1656.400  7.777E-14
1656.600  1.012E-13
1656.800  1.031E-13
1657.000  1.392E-13
1657.200  1.601E-13
1657.400  1.400E-13
1657.600  1.403E-13
1657.800  1.439E-13
1658.000  1.424E-13
1658.200  8.935E-14
1658.400  2.560E-14
1658.600  3.535E-15
1658.800  1.931E-14
1659.000  2.286E-14
1659.200  2.087E-14
1659.400  1.557E-14
1659.600  1.537E-14
1659.800  3.542E-15
1660.000  3.543E-15
1660.200  1.280E-14
1660.400  3.545E-15
1660.600  3.546E-15
1660.800  3.547E-15
1661.000  3.548E-15
1661.200  3.549E-15
1661.400  3.550E-15
1661.600  3.552E-15
1661.800  3.553E-15
1662.000  3.554E-15
1662.200  1.158E-14
1662.400  3.556E-15
1662.600  3.557E-15
1662.800  3.558E-15
1663.000  3.559E-15
1663.200  3.560E-15
1663.400  3.561E-15
1663.600  3.562E-15
1663.800  3.563E-15
1664.000  1.751E-14
1664.200  1.751E-14
1664.400  3.566E-15
1664.600  1.315E-14
1664.800  1.605E-14
1665.000  3.568E-15
1665.200  3.568E-15
1665.400  1.469E-14
1665.600  1.464E-14
1665.800  1.598E-14
1666.000  2.595E-14
1666.200  2.310E-14
1666.400  5.025E-14
1666.600  5.924E-14
1666.800  1.936E-14
1667.000  3.570E-15
1667.200  3.570E-15
1667.400  3.570E-15
1667.600  3.570E-15
1667.800  3.570E-15
1668.000  1.121E-14
1668.200  1.121E-14
1668.400  3.568E-15
1668.600  3.568E-15
1668.800  1.210E-14
1669.000  3.567E-15
1669.200  3.566E-15
1669.400  3.565E-15
1669.600  1.396E-14
1669.800  1.444E-14
1670.000  1.141E-14
1670.200  3.562E-15
1670.400  3.561E-15
1670.600  1.220E-14
1670.800  1.968E-14
1671.000  3.557E-15
1671.200  3.556E-15
1671.400  9.074E-14
1671.600  3.788E-14
1671.800  3.175E-14
1672.000  3.552E-15
1672.200  2.180E-14
1672.400  3.550E-15
1672.600  2.033E-14
1672.800  1.995E-14
1673.000  3.546E-15
1673.200  3.545E-15
1673.400  3.544E-15
1673.600  1.790E-14
1673.800  1.778E-14
1674.000  3.541E-15
1674.200  3.540E-15
1674.400  3.538E-15
1674.600  3.537E-15
1674.800  3.536E-15
1675.000  3.535E-15
1675.200  1.863E-14
1675.400  3.533E-15
1675.600  3.532E-15
1675.800  1.622E-14
1676.000  2.087E-14
1676.200  2.087E-14
1676.400  1.782E-14
1676.600  3.526E-15
1676.800  3.525E-15
1677.000  1.595E-14
1677.200  1.700E-14
1677.400  3.522E-15
1677.600  3.520E-15
1677.800  3.519E-15
1678.000  3.518E-15
1678.200  3.517E-15
1678.400  3.516E-15
1678.600  3.515E-15
1678.800  3.514E-15
1679.000  3.513E-15
1679.200  3.512E-15
1679.400  3.511E-15
1679.600  2.031E-14
1679.800  3.508E-15
1680.000  1.391E-14
1680.200  1.767E-14
1680.400  3.505E-15
1680.600  3.504E-15
1680.800  3.504E-15
1681.000  2.480E-14
1681.200  2.306E-14
1681.400  1.453E-14
1681.600  3.500E-15
1681.800  3.500E-15
1682.000  3.499E-15
1682.200  3.498E-15
1682.400  3.498E-15
1682.600  3.497E-15
1682.800  3.977E-14
1683.000  3.120E-14
1683.200  3.495E-15
1683.400  1.625E-14
1683.600  1.810E-14
1683.800  1.007E-14
1684.000  3.494E-15
1684.200  3.493E-15
1684.400  3.493E-15
1684.600  1.874E-14
1684.800  1.764E-14
1685.000  3.492E-15
1685.200  3.492E-15
1685.400  1.192E-14
1685.600  1.122E-14
1685.800  3.492E-15
1686.000  3.492E-15
1686.200  3.492E-15
1686.400  3.493E-15
1686.600  1.166E-14
1686.800  1.096E-14
1687.000  3.494E-15
1687.200  3.495E-15
1687.400  2.171E-14
1687.600  2.934E-14
1687.800  1.546E-14
1688.000  3.498E-15
1688.200  3.499E-15
1688.400  3.500E-15
1688.600  3.501E-15
1688.800  3.502E-15
1689.000  3.503E-15
1689.200  3.504E-15
1689.400  3.505E-15
1689.600  3.506E-15
1689.800  1.015E-14
1690.000  3.509E-15
1690.200  3.159E-14
1690.400  3.512E-15
1690.600  3.514E-15
1690.800  3.515E-15
1691.000  4.278E-14
1691.200  3.519E-15
1691.400  3.521E-15
1691.600  3.523E-15
1691.800  3.525E-15
1692.000  3.527E-15
1692.200  3.529E-15
1692.400  2.124E-14
1692.600  3.534E-15
1692.800  3.537E-15
1693.000  2.145E-14
1693.200  1.986E-14
1693.400  3.546E-15
1693.600  3.550E-15
1693.800  3.553E-15
1694.000  3.557E-15
1694.200  1.544E-14
1694.400  3.565E-15
1694.600  3.569E-15
1694.800  3.573E-15
1695.000  3.578E-15
1695.200  3.582E-15
1695.400  3.587E-15
1695.600  3.592E-15
1695.800  3.597E-15
1696.000  1.760E-14
1696.200  1.471E-14
1696.400  1.721E-14
1696.600  2.959E-14
1696.800  1.891E-14
1697.000  3.633E-15
1697.200  3.639E-15
1697.400  3.646E-15
1697.600  1.589E-14
1697.800  1.645E-14
1698.000  3.666E-15
1698.200  3.674E-15
1698.400  3.681E-15
1698.600  3.689E-15
1698.800  3.696E-15
1699.000  3.706E-15
1699.200  3.713E-15
1699.400  3.722E-15
1699.600  3.731E-15
1699.800  1.605E-14
1700.000  3.750E-15
1700.200  1.329E-14
1700.400  1.282E-14
1700.600  3.780E-15
1700.800  3.791E-15
1701.000  3.802E-15
1701.200  3.813E-15
1701.400  3.825E-15
1701.600  3.836E-15
1701.800  1.074E-14
1702.000  1.245E-14
1702.200  2.052E-14
1702.400  1.143E-14
1702.600  3.901E-15
1702.800  1.434E-14
1703.000  3.927E-15
1703.200  3.939E-15
1703.400  3.954E-15
1703.600  3.968E-15
1703.800  3.983E-15
1704.000  2.082E-14
1704.200  4.012E-15
1704.400  4.026E-15
1704.600  4.041E-15
1704.800  4.057E-15
1705.000  3.600E-14
1705.200  4.139E-14
1705.400  3.606E-14
1705.600  4.122E-15
1705.800  4.138E-15
1706.000  4.154E-15
1706.200  4.171E-15
1706.400  4.190E-15
1706.600  4.207E-15
1706.800  4.224E-15
1707.000  4.241E-15
1707.200  4.258E-15
1707.400  4.278E-15
1707.600  4.295E-15
1707.800  4.313E-15
1708.000  4.331E-15
1708.200  3.472E-14
1708.400  4.156E-14
1708.600  4.386E-15
1708.800  2.670E-14
1709.000  3.228E-14
1709.200  3.605E-14
1709.400  4.459E-15
1709.600  4.477E-15
1709.800  5.014E-14
1710.000  4.119E-14
1710.200  4.336E-14
1710.400  3.005E-14
1710.600  4.091E-14
1710.800  4.206E-14
1711.000  2.284E-14
1711.200  4.618E-15
1711.400  1.899E-14
1711.600  4.652E-15
1711.800  3.543E-14
1712.000  2.797E-14
1712.200  4.703E-15
1712.400  4.719E-15
1712.600  1.784E-14
1712.800  2.800E-14
1713.000  4.658E-14
1713.200  4.850E-14
1713.400  5.641E-14
1713.600  6.694E-14
1713.800  3.177E-14
1714.000  2.140E-14
1714.200  2.891E-14
1714.400  3.648E-14
1714.600  1.863E-14
1714.800  5.682E-14
1715.000  5.964E-14
1715.200  5.089E-14
1715.400  3.486E-14
1715.600  3.072E-14
1715.800  5.453E-14
1716.000  2.074E-14
1716.200  3.281E-14
1716.400  5.019E-15
1716.600  5.030E-15
1716.800  5.041E-15
1717.000  5.185E-14
1717.200  4.854E-14
1717.400  5.073E-15
1717.600  5.082E-15
1717.800  3.384E-14
1718.000  5.100E-15
1718.200  4.314E-14
1718.400  5.730E-14
1718.600  2.276E-14
1718.800  4.150E-14
1719.000  3.922E-14
1719.200  2.954E-14
1719.400  5.150E-15
1719.600  5.156E-15
1719.800  4.171E-14
1720.000  2.824E-14
1720.200  5.170E-15
1720.400  2.341E-14
1720.600  2.906E-14
1720.800  5.181E-15
1721.000  4.229E-14
1721.200  2.158E-14
1721.400  4.088E-14
1721.600  5.191E-15
1721.800  5.192E-15
1722.000  5.194E-15
1722.200  5.194E-15
1722.400  2.700E-14
1722.600  3.102E-14
1722.800  5.195E-15
1723.000  2.872E-14
1723.200  3.075E-14
1723.400  2.559E-14
1723.600  5.192E-15
1723.800  3.071E-14
1724.000  5.189E-15
1724.200  5.187E-15
1724.400  5.185E-15
1724.600  3.464E-14
1724.800  5.180E-15
1725.000  5.177E-15
1725.200  5.174E-15
1725.400  5.170E-15
1725.600  2.479E-14
1725.800  1.881E-14
1726.000  2.931E-14
1726.200  2.828E-14
1726.400  3.796E-14
1726.600  2.865E-14
1726.800  5.142E-15
1727.000  3.078E-14
1727.200  2.127E-14
1727.400  2.555E-14
1727.600  1.870E-14
1727.800  5.117E-15
1728.000  3.440E-14
1728.200  2.026E-14
1728.400  5.100E-15
1728.600  2.194E-14
1728.800  2.240E-14
1729.000  3.462E-14
1729.200  3.860E-14
1729.400  5.068E-15
1729.600  1.646E-14
1729.800  5.053E-15
1730.000  5.046E-15
1730.200  4.534E-14
1730.400  4.470E-14
1730.600  3.676E-14
1730.800  3.839E-14
1731.000  1.830E-14
1731.200  2.155E-14
1731.400  4.992E-15
1731.600  4.984E-15
1731.800  4.976E-15
1732.000  4.968E-15
1732.200  4.960E-15
1732.400  2.845E-14
1732.600  2.319E-14
1732.800  4.936E-15
1733.000  4.927E-15
1733.200  4.920E-15
1733.400  2.219E-14
1733.600  4.903E-15
1733.800  4.895E-15
1734.000  4.887E-15
1734.200  2.152E-14
1734.400  4.871E-15
1734.600  3.638E-14
1734.800  4.250E-14
1735.000  4.846E-15
1735.200  4.839E-15
1735.400  4.830E-15
1735.600  4.822E-15
1735.800  4.814E-15
1736.000  2.861E-14
1736.200  3.747E-14
1736.400  4.791E-15
1736.600  4.783E-15
1736.800  4.775E-15
1737.000  4.766E-15
1737.200  4.759E-15
1737.400  2.070E-14
1737.600  2.279E-14
1737.800  1.964E-14
1738.000  4.313E-14
1738.200  2.979E-14
1738.400  4.711E-15
1738.600  4.704E-15
1738.800  2.021E-14
1739.000  4.109E-14
1739.200  3.807E-14
1739.400  4.672E-15
1739.600  4.664E-15
1739.800  4.656E-15
1740.000  1.750E-14
1740.200  1.767E-14
1740.400  1.889E-14
1740.600  4.626E-15
1740.800  4.618E-15
1741.000  2.435E-14
1741.200  4.603E-15
1741.400  2.121E-14
1741.600  1.769E-14
1741.800  2.204E-14
1742.000  4.572E-15
1742.200  4.565E-15
1742.400  4.442E-14
1742.600  4.777E-14
1742.800  4.542E-15
1743.000  1.266E-14
1743.200  4.528E-15
1743.400  1.815E-14
1743.600  2.636E-14
1743.800  1.307E-14
1744.000  4.498E-15
1744.200  4.490E-15
1744.400  4.483E-15
1744.600  4.476E-15
1744.800  1.489E-14
1745.000  3.363E-14
1745.200  3.022E-14
1745.400  4.448E-15
1745.600  4.440E-15
1745.800  4.433E-15
1746.000  4.426E-15
1746.200  2.026E-14
1746.400  1.628E-14
1746.600  1.992E-14
1746.800  5.453E-14
1747.000  4.533E-14
1747.200  4.387E-15
1747.400  4.380E-15
1747.600  4.373E-15
1747.800  2.546E-14
1748.000  2.245E-14
1748.200  3.853E-14
1748.400  4.348E-15
1748.600  4.342E-15
1748.800  2.453E-14
1749.000  4.330E-15
1749.200  4.323E-15
1749.400  4.317E-15
1749.600  4.311E-15
1749.800  4.306E-15
1750.000  4.300E-15
1750.200  4.294E-15
1750.400  4.288E-15
1750.600  4.282E-15
1750.800  2.139E-14
1751.000  1.594E-14
1751.200  2.061E-14
1751.400  1.896E-14
1751.600  5.637E-14
1751.800  4.193E-14
1752.000  2.296E-14
1752.200  1.888E-14
1752.400  2.274E-14
1752.600  4.228E-15
1752.800  2.229E-14
1753.000  2.665E-14
1753.200  1.718E-14
1753.400  2.630E-14
1753.600  2.639E-14
1753.800  2.623E-14
1754.000  2.118E-14
1754.200  4.189E-15
1754.400  4.185E-15
1754.600  4.180E-15
1754.800  4.176E-15
1755.000  4.171E-15
1755.200  4.167E-15
1755.400  4.163E-15
1755.600  4.159E-15
1755.800  4.154E-15
1756.000  4.150E-15
1756.200  4.146E-15
1756.400  4.141E-15
1756.600  1.311E-14
1756.800  4.133E-15
1757.000  4.129E-15
1757.200  4.126E-15
1757.400  1.908E-14
1757.600  1.701E-14
1757.800  4.114E-15
1758.000  1.216E-14
1758.200  1.694E-14
1758.400  4.102E-15
1758.600  4.098E-15
1758.800  4.095E-15
1759.000  4.091E-15
1759.200  4.087E-15
1759.400  4.083E-15
1759.600  4.080E-15
1759.800  4.076E-15
1760.000  2.879E-14
1760.200  2.391E-14
1760.400  4.065E-15
1760.600  4.062E-15
1760.800  2.074E-14
1761.000  4.055E-15
1761.200  4.052E-15
1761.400  1.466E-14
1761.600  1.732E-14
1761.800  4.041E-15
1762.000  4.037E-15
1762.200  2.010E-14
1762.400  4.030E-15
1762.600  4.027E-15
1762.800  4.023E-15
1763.000  4.019E-15
1763.200  2.622E-14
1763.400  2.611E-14
1763.600  4.009E-15
1763.800  4.005E-15
1764.000  4.001E-15
1764.200  2.776E-14
1764.400  2.757E-14
1764.600  3.991E-15
1764.800  3.987E-15
1765.000  3.983E-15
1765.200  3.980E-15
1765.400  3.976E-15
1765.600  3.972E-15
1765.800  3.969E-15
1766.000  2.555E-14
1766.200  4.188E-14
1766.400  2.073E-14
1766.600  3.954E-15
1766.800  3.950E-15
1767.000  3.947E-15
1767.200  2.078E-14
1767.400  3.939E-15
1767.600  3.936E-15
1767.800  1.362E-14
1768.000  3.928E-15
1768.200  3.925E-15
1768.400  3.921E-15
1768.600  1.917E-14
1768.800  2.635E-14
1769.000  4.233E-14
1769.200  2.995E-14
1769.400  2.882E-14
1769.600  2.532E-14
1769.800  1.638E-14
1770.000  1.542E-14
1770.200  2.193E-14
1770.400  3.883E-15
1770.600  3.880E-15
1770.800  1.509E-14
1771.000  3.872E-15
1771.200  1.685E-14
1771.400  3.864E-15
1771.600  3.860E-15
1771.800  3.856E-15
1772.000  3.852E-15
1772.200  2.159E-14
1772.400  2.334E-14
1772.600  1.332E-14
1772.800  1.203E-14
1773.000  3.831E-15
1773.200  1.248E-14
1773.400  3.823E-15
1773.600  2.962E-14
1773.800  4.510E-14
1774.000  3.391E-14
1774.200  1.873E-14
1774.400  2.495E-14
1774.600  3.006E-14
1774.800  2.008E-14
1775.000  2.409E-14
1775.200  1.963E-14
1775.400  1.757E-14
1775.600  1.997E-14
1775.800  3.774E-15
1776.000  1.088E-14
1776.200  2.135E-14
1776.400  1.378E-14
1776.600  3.758E-15
1776.800  2.242E-14
1777.000  1.876E-14
1777.200  2.155E-14
1777.400  2.068E-14
1777.600  3.737E-15
1777.800  1.684E-14
1778.000  1.511E-14
1778.200  3.725E-15
1778.400  1.615E-14
1778.600  2.592E-14
1778.800  3.712E-15
1779.000  2.847E-14
1779.200  2.694E-14
1779.400  1.659E-14
1779.600  3.696E-15
1779.800  1.650E-14
1780.000  3.687E-15
1780.200  2.026E-14
1780.400  1.308E-14
1780.600  2.396E-14
1780.800  2.658E-14
1781.000  3.667E-15
1781.200  3.073E-14
1781.400  3.136E-14
1781.600  3.305E-14
1781.800  4.403E-14
1782.000  3.646E-15
1782.200  3.642E-15
1782.400  2.462E-14
1782.600  2.447E-14
1782.800  1.920E-14
1783.000  1.296E-14
1783.200  2.054E-14
1783.400  1.570E-14
1783.600  3.615E-15
1783.800  1.745E-14
1784.000  2.524E-14
1784.200  2.902E-14
1784.400  2.039E-14
1784.600  1.174E-14
1784.800  3.076E-14
1785.000  5.989E-14
1785.200  6.379E-14
1785.400  1.789E-14
1785.600  1.614E-14
1785.800  1.669E-14
1786.000  1.275E-14
1786.200  4.181E-14
1786.400  3.961E-14
1786.600  2.285E-14
1786.800  3.554E-15
1787.000  3.550E-15
1787.200  1.325E-14
1787.400  4.178E-14
1787.600  3.526E-14
1787.800  6.997E-14
1788.000  5.936E-14
1788.200  2.132E-14
1788.400  1.245E-14
1788.600  2.367E-14
1788.800  2.206E-14
1789.000  2.491E-14
1789.200  1.934E-14
1789.400  2.012E-14
1789.600  1.433E-14
1789.800  1.273E-14
1790.000  1.347E-14
1790.200  3.495E-15
1790.400  3.491E-15
1790.600  1.359E-14
1790.800  1.416E-14
1791.000  3.482E-15
1791.200  3.478E-15
1791.400  1.260E-14
1791.600  3.471E-15
1791.800  1.849E-14
1792.000  3.465E-15
1792.200  3.362E-14
1792.400  4.535E-14
1792.600  2.184E-14
1792.800  2.585E-14
1793.000  2.373E-14
1793.200  2.799E-14
1793.400  1.476E-14
1793.600  1.373E-14
1793.800  3.436E-15
1794.000  2.859E-14
1794.200  3.003E-14
1794.400  1.476E-14
1794.600  1.296E-14
1794.800  3.420E-15
1795.000  3.417E-15
1795.200  1.550E-14
1795.400  2.154E-14
1795.600  3.408E-15
1795.800  3.405E-15
1796.000  3.402E-15
1796.200  1.754E-14
1796.400  2.719E-14
1796.600  2.737E-14
1796.800  2.441E-14
1797.000  2.078E-14
1797.200  1.992E-14
1797.400  2.683E-14
1797.600  1.183E-14
1797.800  3.376E-15
1798.000  3.373E-15
1798.200  1.635E-14
1798.400  1.597E-14
1798.600  3.365E-15
1798.800  3.362E-15
1799.000  1.514E-14
1799.200  1.229E-14
1799.400  3.353E-15
1799.600  1.325E-14
1799.800  1.491E-14
1800.000  1.507E-14
1800.200  1.460E-14
1800.400  1.715E-14
1800.600  2.704E-14
1800.800  1.400E-14
1801.000  9.756E-15
1801.200  1.603E-14
1801.400  1.904E-14
1801.600  1.290E-14
1801.800  3.317E-15
1802.000  1.095E-14
1802.200  1.437E-14
1802.400  1.562E-14
1802.600  3.304E-15
1802.800  3.301E-15
1803.000  9.451E-15
1803.200  1.014E-14
1803.400  1.783E-14
1803.600  1.314E-14
1803.800  3.284E-15
1804.000  1.197E-14
1804.200  1.388E-14
1804.400  1.677E-14
1804.600  1.530E-14
1804.800  1.482E-14
1805.000  1.671E-14
1805.200  1.399E-14
1805.400  1.443E-14
1805.600  1.923E-14
1805.800  1.693E-14
1806.000  3.245E-15
1806.200  3.241E-15
1806.400  8.987E-15
1806.600  1.364E-14
1806.800  1.226E-14
1807.000  1.111E-13
1807.200  1.192E-13
1807.400  5.071E-14
1807.600  1.853E-13
1807.800  3.439E-13
1808.000  3.316E-13
1808.200  6.901E-14
1808.400  1.101E-14
1808.600  3.198E-15
1808.800  3.195E-15
1809.000  2.279E-14
1809.200  1.999E-14
1809.400  1.379E-14
1809.600  3.180E-15
1809.800  2.332E-14
1810.000  2.007E-14
1810.200  3.169E-15
1810.400  1.345E-14
1810.600  3.161E-15
1810.800  1.672E-14
1811.000  1.399E-14
1811.200  2.245E-14
1811.400  2.523E-14
1811.600  1.478E-14
1811.800  2.551E-14
1812.000  1.404E-14
1812.200  3.132E-15
1812.400  2.304E-14
1812.600  2.462E-14
1812.800  2.860E-14
1813.000  2.751E-14
1813.200  1.386E-14
1813.400  1.117E-14
1813.600  3.105E-15
1813.800  1.148E-14
1814.000  3.097E-15
1814.200  2.373E-14
1814.400  2.460E-14
1814.600  3.085E-15
1814.800  3.082E-15
1815.000  3.078E-15
1815.200  1.227E-14
1815.400  1.800E-14
1815.600  1.763E-14
1815.800  2.300E-14
1816.000  1.300E-14
1816.200  2.318E-14
1816.400  2.092E-13
1816.600  7.490E-13
1816.800  7.929E-13
1817.000  5.517E-13
1817.200  3.954E-13
1817.400  3.515E-13
1817.600  2.988E-14
1817.800  1.241E-14
1818.000  9.808E-15
1818.200  2.570E-14
1818.400  2.194E-14
1818.600  1.226E-14
1818.800  1.311E-14
1819.000  3.004E-15
1819.200  1.251E-14
1819.400  9.224E-15
1819.600  1.077E-14
1819.800  1.755E-14
1820.000  1.209E-13
1820.200  1.476E-13
1820.400  6.283E-14
1820.600  2.014E-14
1820.800  1.598E-14
1821.000  1.364E-14
1821.200  1.220E-14
1821.400  2.022E-14
1821.600  2.381E-14
1821.800  2.145E-14
1822.000  2.238E-14
1822.200  2.005E-14
1822.400  1.666E-14
1822.600  9.118E-15
1822.800  1.693E-14
1823.000  1.196E-14
1823.200  2.934E-15
1823.400  2.080E-14
1823.600  2.927E-15
1823.800  1.609E-14
1824.000  1.260E-14
1824.200  1.129E-14
1824.400  1.205E-14
1824.600  2.912E-15
1824.800  2.909E-15
1825.000  2.906E-15
1825.200  2.903E-15
1825.400  2.900E-15
1825.600  2.897E-15
1825.800  5.118E-14
1826.000  2.035E-13
1826.200  1.908E-13
1826.400  2.885E-15
1826.600  2.882E-15
1826.800  9.992E-15
1827.000  1.914E-14
1827.200  1.182E-14
1827.400  2.870E-15
1827.600  1.211E-14
1827.800  2.864E-15
1828.000  1.429E-14
1828.200  3.096E-14
1828.400  3.182E-14
1828.600  3.718E-14
1828.800  3.154E-14
1829.000  2.549E-14
1829.200  2.654E-14
1829.400  2.841E-15
1829.600  2.838E-15
1829.800  1.466E-14
1830.000  2.833E-15
1830.200  2.830E-15
1830.400  2.827E-15
1830.600  2.262E-14
1830.800  2.277E-14
1831.000  2.818E-15
1831.200  2.816E-15
1831.400  9.910E-15
1831.600  1.710E-14
1831.800  1.906E-14
1832.000  3.020E-14
1832.200  3.280E-14
1832.400  2.798E-15
1832.600  1.764E-14
1832.800  3.523E-14
1833.000  1.192E-14
1833.200  1.306E-14
1833.400  1.410E-14
1833.600  1.214E-14
1833.800  9.187E-15
1834.000  9.997E-15
1834.200  9.171E-15
1834.400  1.629E-14
1834.600  2.767E-15
1834.800  2.764E-15
1835.000  2.761E-15
1835.200  9.959E-15
1835.400  8.614E-15
1835.600  2.752E-15
1835.800  2.749E-15
1836.000  9.303E-15
1836.200  1.878E-14
1836.400  1.405E-14
1836.600  8.091E-15
1836.800  1.901E-14
1837.000  1.852E-14
1837.200  1.383E-14
1837.400  1.409E-14
1837.600  1.716E-14
1837.800  2.793E-14
1838.000  1.486E-14
1838.200  1.148E-14
1838.400  1.541E-14
1838.600  1.310E-14
1838.800  1.650E-14
1839.000  1.632E-14
1839.200  1.305E-14
1839.400  1.226E-14
1839.600  1.253E-14
1839.800  1.314E-14
1840.000  1.320E-14
1840.200  9.611E-15
1840.400  1.326E-14
1840.600  2.680E-15
1840.800  1.678E-14
1841.000  1.811E-14
1841.200  2.133E-14
1841.400  2.162E-14
1841.600  1.821E-14
1841.800  1.039E-14
1842.000  2.077E-14
1842.200  1.759E-14
1842.400  1.055E-14
1842.600  1.319E-14
1842.800  2.650E-15
1843.000  2.145E-14
1843.200  2.129E-14
1843.400  1.369E-14
1843.600  2.639E-15
1843.800  1.026E-14
1844.000  1.236E-14
1844.200  2.632E-15
1844.400  1.653E-14
1844.600  1.488E-14
1844.800  2.623E-15
1845.000  2.134E-14
1845.200  2.529E-14
1845.400  1.346E-14
1845.600  1.791E-14
1845.800  2.128E-14
1846.000  1.923E-14
1846.200  2.473E-14
1846.400  2.225E-14
1846.600  1.617E-14
1846.800  1.786E-14
1847.000  9.524E-15
1847.200  3.139E-14
1847.400  2.572E-14
1847.600  2.588E-15
1847.800  1.133E-14
1848.000  1.475E-14
1848.200  2.580E-15
1848.400  1.298E-14
1848.600  1.620E-14
1848.800  1.299E-14
1849.000  1.359E-14
1849.200  1.247E-14
1849.400  9.960E-15
1849.600  1.041E-14
1849.800  1.771E-14
1850.000  1.386E-14
1850.200  2.557E-15
1850.400  3.770E-14
1850.600  4.098E-14
1850.800  2.551E-15
1851.000  1.382E-14
1851.200  1.525E-14
1851.400  2.544E-15
1851.600  1.179E-14
1851.800  2.201E-14
1852.000  9.253E-15
1852.200  8.274E-15
1852.400  1.014E-14
1852.600  1.949E-14
1852.800  2.728E-14
1853.000  1.233E-14
1853.200  1.108E-14
1853.400  2.524E-15
1853.600  1.447E-14
1853.800  1.183E-14
1854.000  1.322E-14
1854.200  1.301E-14
1854.400  2.157E-14
1854.600  1.601E-14
1854.800  1.267E-14
1855.000  8.985E-15
1855.200  1.156E-14
1855.400  2.504E-15
1855.600  2.502E-15
1855.800  2.500E-15
1856.000  2.499E-15
1856.200  8.112E-15
1856.400  7.987E-15
1856.600  2.493E-15
1856.800  2.491E-15
1857.000  1.042E-14
1857.200  1.551E-14
1857.400  7.989E-15
1857.600  2.220E-14
1857.800  1.929E-14
1858.000  2.467E-14
1858.200  9.911E-15
1858.400  2.477E-15
1858.600  8.369E-15
1858.800  1.481E-14
1859.000  8.504E-15
1859.200  1.618E-14
1859.400  1.426E-14
1859.600  2.269E-14
1859.800  3.638E-14
1860.000  3.242E-14
1860.200  1.761E-14
1860.400  1.327E-14
1860.600  1.997E-14
1860.800  1.905E-14
1861.000  1.167E-14
1861.200  1.364E-14
1861.400  2.454E-15
1861.600  2.453E-15
1861.800  1.125E-14
1862.000  1.752E-14
1862.200  1.036E-14
1862.400  1.382E-14
1862.600  1.304E-14
1862.800  1.388E-14
1863.000  2.444E-15
1863.200  1.521E-14
1863.400  1.117E-14
1863.600  1.302E-14
1863.800  1.376E-14
1864.000  8.933E-15
1864.200  2.436E-15
1864.400  2.435E-15
1864.600  1.155E-14
1864.800  1.031E-14
1865.000  2.431E-15
1865.200  2.430E-15
1865.400  2.429E-15
1865.600  2.428E-15
1865.800  9.488E-15
1866.000  2.426E-15
1866.200  1.387E-14
1866.400  1.673E-14
1866.600  2.422E-15
1866.800  2.421E-15
1867.000  2.420E-15
1867.200  1.098E-14
1867.400  1.814E-14
1867.600  1.715E-14
1867.800  8.376E-15
1868.000  1.639E-14
1868.200  8.082E-15
1868.400  2.413E-15
1868.600  2.412E-15
1868.800  1.016E-14
1869.000  1.354E-14
1869.200  1.975E-14
1869.400  4.322E-14
1869.600  2.431E-14
1869.800  1.051E-14
1870.000  1.924E-14
1870.200  1.195E-14
1870.400  2.404E-15
1870.600  2.404E-15
1870.800  1.098E-14
1871.000  2.402E-15
1871.200  1.140E-14
1871.400  1.138E-14
1871.600  1.058E-14
1871.800  2.399E-15
1872.000  7.875E-15
1872.200  9.122E-15
1872.400  4.062E-14
1872.600  3.530E-14
1872.800  1.446E-14
1873.000  7.179E-15
1873.200  2.394E-15
1873.400  1.051E-14
1873.600  2.392E-15
1873.800  1.105E-14
1874.000  1.206E-14
1874.200  1.023E-14
1874.400  1.059E-14
1874.600  1.561E-14
1874.800  1.697E-14
1875.000  1.197E-14
1875.200  7.712E-15
1875.400  9.936E-15
1875.600  9.240E-15
1875.800  2.384E-15
1876.000  1.164E-14
1876.200  1.747E-14
1876.400  1.672E-14
1876.600  2.281E-14
1876.800  2.269E-14
1877.000  2.380E-15
1877.200  9.450E-15
1877.400  1.243E-14
1877.600  2.377E-15
1877.800  9.074E-15
1878.000  9.798E-15
1878.200  2.375E-15
1878.400  2.374E-15
1878.600  1.165E-14
1878.800  2.372E-15
1879.000  1.354E-14
1879.200  2.370E-15
1879.400  8.803E-15
1879.600  1.328E-14
1879.800  2.034E-14
1880.000  1.177E-14
1880.200  2.366E-15
1880.400  2.365E-15
1880.600  2.653E-14
1880.800  2.674E-14
1881.000  1.912E-14
1881.200  8.769E-15
1881.400  2.359E-15
1881.600  2.358E-15
1881.800  2.357E-15
1882.000  1.744E-14
1882.200  1.916E-14
1882.400  2.244E-14
1882.600  8.071E-15
1882.800  2.123E-14
1883.000  2.109E-14
1883.200  1.940E-14
1883.400  2.348E-15
1883.600  1.346E-14
1883.800  1.289E-14
1884.000  1.314E-14
1884.200  1.293E-14
1884.400  6.990E-15
1884.600  1.631E-14
1884.800  1.263E-14
1885.000  8.230E-15
1885.200  1.210E-14
1885.400  2.334E-15
1885.600  2.333E-15
1885.800  7.026E-15
1886.000  1.221E-14
1886.200  1.960E-14
1886.400  1.981E-14
1886.600  1.077E-14
1886.800  1.781E-14
1887.000  1.740E-14
1887.200  1.283E-14
1887.400  2.320E-15
1887.600  1.411E-14
1887.800  3.502E-14
1888.000  1.938E-14
1888.200  9.759E-15
1888.400  2.158E-14
1888.600  1.981E-14
1888.800  1.456E-14
1889.000  1.651E-14
1889.200  1.285E-14
1889.400  1.139E-14
1889.600  1.279E-14
1889.800  1.809E-14
1890.000  1.634E-14
1890.200  2.296E-15
1890.400  8.083E-15
1890.600  1.191E-14
1890.800  1.101E-14
1891.000  1.335E-14
1891.200  2.019E-14
1891.400  3.224E-14
1891.600  5.794E-14
1891.800  1.029E-13
1892.000  8.918E-14
1892.200  3.847E-14
1892.400  2.126E-14
1892.600  2.181E-14
1892.800  1.582E-14
1893.000  2.973E-14
1893.200  2.898E-14
1893.400  1.056E-14
1893.600  1.214E-14
1893.800  2.041E-14
1894.000  1.651E-14
1894.200  9.105E-15
1894.400  8.325E-15
1894.600  2.507E-14
1894.800  1.412E-14
1895.000  1.875E-14
1895.200  1.566E-14
1895.400  9.211E-15
1895.600  1.747E-14
1895.800  2.789E-14
1896.000  2.712E-14
1896.200  2.247E-14
1896.400  1.553E-14
1896.600  2.235E-15
1896.800  1.562E-14
1897.000  1.605E-14
1897.200  1.004E-14
1897.400  9.062E-15
1897.600  1.408E-14
1897.800  2.037E-14
1898.000  1.483E-14
1898.200  1.447E-14
1898.400  1.995E-14
1898.600  8.481E-15
1898.800  1.832E-14
1899.000  1.234E-14
1899.200  1.379E-14
1899.400  1.781E-14
1899.600  2.009E-14
1899.800  4.150E-14
1900.000  4.458E-13
1900.200  4.476E-13
1900.400  3.119E-14
1900.600  1.841E-14
1900.800  8.582E-15
1901.000  3.315E-14
1901.200  4.414E-14
1901.400  1.984E-14
1901.600  3.330E-14
1901.800  2.030E-14
1902.000  7.977E-15
1902.200  1.045E-14
1902.400  2.179E-15
1902.600  6.848E-15
1902.800  6.675E-15
1903.000  1.018E-14
1903.200  6.368E-15
1903.400  1.120E-14
1903.600  1.096E-14
1903.800  9.768E-15
1904.000  1.073E-14
1904.200  1.000E-14
1904.400  9.555E-15
1904.600  6.671E-15
1904.800  1.698E-14
1905.000  1.658E-14
1905.200  1.275E-14
1905.400  8.507E-15
1905.600  2.149E-15
1905.800  8.585E-15
1906.000  1.735E-14
1906.200  5.336E-14
1906.400  4.416E-14
1906.600  1.298E-14
1906.800  1.528E-14
1907.000  1.196E-14
1907.200  8.646E-15
1907.400  8.129E-15
1907.600  1.302E-14
1907.800  1.850E-14
1908.000  1.931E-14
1908.200  3.502E-14
1908.400  6.961E-14
1908.600  8.211E-14
1908.800  6.240E-14
1909.000  2.542E-14
1909.200  1.484E-14
1909.400  1.232E-14
1909.600  8.707E-15
1909.800  8.435E-15
1910.000  8.699E-15
1910.200  9.042E-15
1910.400  2.109E-15
1910.600  1.602E-14
1910.800  1.073E-14
1911.000  2.299E-14
1911.200  1.939E-14
1911.400  9.659E-15
1911.600  1.750E-14
1911.800  1.774E-14
1912.000  1.423E-14
1912.200  7.976E-15
1912.400  8.777E-15
1912.600  1.385E-14
1912.800  1.811E-14
1913.000  2.086E-14
1913.200  1.870E-14
1913.400  2.081E-14
1913.600  1.305E-14
1913.800  1.272E-14
1914.000  1.638E-14
1914.200  1.885E-14
1914.400  1.943E-13
1914.600  1.970E-13
1914.800  2.913E-14
1915.000  1.114E-14
1915.200  2.046E-14
1915.400  1.466E-14
1915.600  2.366E-14
1915.800  1.996E-14
1916.000  1.372E-14
1916.200  1.337E-14
1916.400  8.262E-15
1916.600  1.564E-14
1916.800  1.373E-14
1917.000  1.433E-14
1917.200  1.933E-14
1917.400  1.592E-14
1917.600  1.232E-14
1917.800  1.797E-14
1918.000  1.089E-14
1918.200  1.496E-14
1918.400  1.629E-14
1918.600  1.573E-14
1918.800  2.780E-14
1919.000  1.550E-14
1919.200  1.339E-14
1919.400  2.053E-15
1919.600  1.351E-14
1919.800  1.391E-14
1920.000  2.050E-15
1920.200  2.049E-15
1920.400  8.462E-15
1920.600  2.047E-15
1920.800  1.312E-14
1921.000  1.884E-14
1921.200  1.248E-14
1921.400  9.858E-15
1921.600  1.575E-14
1921.800  2.147E-14
1922.000  1.471E-14
1922.200  1.298E-14
1922.400  1.086E-14
1922.600  9.574E-15
1922.800  9.455E-15
1923.000  9.581E-15
1923.200  1.615E-14
1923.400  1.530E-14
1923.600  8.005E-15
1923.800  1.338E-14
1924.000  1.253E-14
1924.200  1.599E-14
1924.400  1.372E-14
1924.600  1.322E-14
1924.800  1.317E-14
1925.000  1.427E-14
1925.200  2.027E-15
1925.400  1.057E-14
1925.600  1.822E-14
1925.800  1.737E-14
1926.000  2.614E-14
1926.200  2.604E-14
1926.400  5.862E-15
1926.600  1.495E-14
1926.800  1.467E-14
1927.000  1.367E-14
1927.200  1.411E-14
1927.400  1.044E-14
1927.600  1.497E-14
1927.800  7.561E-15
1928.000  9.320E-15
1928.200  6.466E-15
1928.400  1.545E-14
1928.600  1.323E-14
1928.800  9.235E-15
1929.000  9.726E-15
1929.200  9.430E-15
1929.400  2.627E-14
1929.600  2.398E-14
1929.800  1.984E-14
1930.000  1.106E-14
1930.200  7.692E-15
1930.400  2.263E-14
1930.600  5.196E-14
1930.800  5.885E-14
1931.000  2.970E-14
1931.200  1.353E-14
1931.400  1.257E-14
1931.600  1.308E-14
1931.800  1.190E-14
1932.000  1.470E-14
1932.200  8.474E-15
1932.400  1.235E-14
1932.600  1.841E-14
1932.800  2.191E-14
1933.000  1.770E-14
1933.200  1.770E-14
1933.400  8.372E-15
1933.600  9.676E-15
1933.800  1.195E-14
1934.000  2.257E-14
1934.200  1.877E-14
1934.400  1.318E-14
1934.600  1.679E-14
1934.800  1.838E-14
1935.000  1.551E-14
1935.200  1.588E-14
1935.400  1.630E-14
1935.600  1.684E-14
1935.800  1.290E-14
1936.000  7.894E-15
1936.200  1.638E-14
1936.400  1.207E-14
1936.600  2.714E-14
1936.800  1.957E-14
1937.000  1.062E-14
1937.200  1.285E-14
1937.400  1.974E-15
1937.600  1.659E-14
1937.800  1.613E-14
1938.000  1.971E-15
1938.200  1.394E-14
1938.400  6.762E-15
1938.600  1.249E-14
1938.800  1.275E-14
1939.000  1.284E-14
1939.200  9.685E-15
1939.400  8.060E-15
1939.600  7.327E-15
1939.800  7.311E-15
1940.000  1.091E-14
1940.200  1.437E-14
1940.400  1.122E-14
1940.600  9.067E-15
1940.800  1.141E-14
1941.000  1.495E-14
1941.200  1.556E-14
1941.400  1.858E-14
1941.600  1.824E-14
1941.800  1.769E-14
1942.000  1.262E-14
1942.200  1.038E-14
1942.400  1.101E-14
1942.600  1.560E-14
1942.800  2.439E-14
1943.000  2.306E-14
1943.200  2.051E-14
1943.400  1.294E-14
1943.600  1.867E-14
1943.800  1.373E-14
1944.000  1.304E-14
1944.200  1.718E-14
1944.400  1.790E-14
1944.600  1.804E-14
1944.800  1.909E-14
1945.000  1.070E-14
1945.200  1.547E-14
1945.400  1.824E-14
1945.600  1.748E-14
1945.800  1.510E-14
1946.000  1.193E-14
1946.200  1.464E-14
1946.400  1.575E-14
1946.600  1.630E-14
1946.800  1.626E-14
1947.000  1.618E-14
1947.200  1.833E-14
1947.400  1.758E-14
1947.600  1.389E-14
1947.800  1.637E-14
1948.000  2.355E-14
1948.200  2.079E-14
1948.400  1.724E-14
1948.600  1.802E-14
1948.800  1.300E-14
1949.000  1.969E-14
1949.200  1.930E-14
1949.400  1.233E-14
1949.600  1.012E-14
1949.800  1.488E-14
1950.000  1.498E-14
1950.200  1.028E-14
1950.400  1.917E-15
1950.600  7.399E-15
1950.800  8.475E-15
1951.000  9.329E-15
1951.200  1.920E-14
1951.400  1.428E-14
1951.600  1.355E-14
1951.800  1.129E-14
1952.000  1.344E-14
1952.200  1.066E-14
1952.400  1.258E-14
1952.600  1.240E-14
1952.800  1.306E-14
1953.000  1.188E-14
1953.200  1.213E-14
1953.400  9.801E-15
1953.600  1.906E-14
1953.800  2.424E-14
1954.000  2.280E-14
1954.200  1.178E-14
1954.400  6.471E-15
1954.600  2.089E-14
1954.800  2.000E-14
1955.000  1.285E-14
1955.200  1.314E-14
1955.400  1.658E-14
1955.600  6.372E-15
1955.800  8.513E-15
1956.000  1.363E-14
1956.200  1.363E-14
1956.400  1.468E-14
1956.600  1.446E-14
1956.800  8.008E-15
1957.000  1.257E-14
1957.200  1.312E-14
1957.400  1.867E-14
1957.600  1.467E-14
1957.800  1.402E-14
1958.000  2.131E-14
1958.200  1.872E-14
1958.400  1.794E-14
1958.600  8.051E-15
1958.800  1.204E-14
1959.000  1.200E-14
1959.200  1.520E-14
1959.400  1.268E-14
1959.600  1.462E-14
1959.800  2.136E-14
1960.000  1.664E-14
1960.200  1.312E-14
1960.400  1.561E-14
1960.600  1.457E-14
1960.800  9.702E-15
1961.000  7.009E-15
1961.200  1.397E-14
1961.400  1.673E-14
1961.600  1.767E-14
1961.800  1.357E-14
1962.000  5.704E-15
1962.200  1.166E-14
1962.400  1.036E-14
1962.600  1.047E-14
1962.800  1.061E-14
1963.000  1.282E-14
1963.200  1.240E-14
1963.400  1.518E-14
1963.600  1.162E-14
1963.800  1.276E-14
1964.000  6.031E-15
1964.200  1.342E-14
1964.400  1.531E-14
1964.600  1.621E-14
1964.800  1.604E-14
1965.000  1.191E-14
1965.200  1.189E-14
1965.400  1.230E-14
1965.600  1.238E-14
1965.800  1.296E-14
1966.000  1.991E-14
1966.200  2.002E-14
1966.400  1.380E-14
1966.600  1.397E-14
1966.800  1.422E-14
1967.000  1.268E-14
1967.200  1.889E-14
1967.400  1.393E-14
1967.600  2.151E-14
1967.800  2.316E-14
1968.000  1.848E-14
1968.200  1.847E-14
1968.400  1.093E-14
1968.600  1.551E-14
1968.800  1.218E-14
1969.000  2.336E-14
1969.200  1.758E-14
1969.400  1.366E-14
1969.600  1.765E-14
1969.800  1.724E-14
1970.000  1.991E-14
1970.200  1.841E-14
1970.400  1.683E-14
1970.600  1.410E-14
1970.800  1.123E-14
1971.000  1.163E-14
1971.200  1.597E-14
1971.400  9.024E-15
1971.600  1.163E-14
1971.800  7.051E-15
1972.000  8.706E-15
1972.200  1.337E-14
1972.400  1.596E-14
1972.600  1.774E-14
1972.800  1.544E-14
1973.000  1.544E-14
1973.200  1.608E-14
1973.400  1.637E-14
1973.600  1.591E-14
1973.800  1.245E-14
1974.000  2.021E-14
1974.200  2.142E-14
1974.400  1.971E-14
1974.600  1.952E-14
1974.800  1.884E-14
1975.000  1.216E-14
1975.200  2.259E-14
1975.400  1.526E-14
1975.600  1.677E-14
1975.800  1.784E-14
1976.000  1.420E-14
1976.200  1.997E-14
1976.400  1.567E-14
1976.600  1.830E-14
1976.800  1.939E-14
1977.000  2.433E-14
1977.200  2.115E-14
1977.400  3.397E-14
1977.600  2.556E-14
1977.800  1.509E-14
1978.000  1.521E-14
1978.200  2.518E-14
1978.400  2.258E-14
1978.600  1.223E-14
1978.800  2.625E-14
1979.000  2.815E-14
1979.200  2.099E-14
1979.400  2.128E-14
1979.600  1.326E-14
1979.800  9.839E-15
1980.000  1.259E-14
1980.200  1.774E-14
1980.400  2.498E-14
1980.600  1.636E-14
1980.800  1.422E-14
1981.000  1.410E-14
1981.200  1.546E-14
1981.400  1.012E-14
1981.600  1.553E-14
1981.800  1.682E-14
1982.000  2.251E-14
1982.200  1.728E-14
1982.400  1.637E-14
1982.600  9.571E-15
1982.800  1.683E-14
1983.000  3.823E-14
1983.200  3.351E-14
1983.400  1.315E-14
1983.600  1.249E-14
1983.800  1.153E-14
1984.000  1.122E-14
1984.200  1.099E-14
1984.400  8.547E-15
1984.600  1.644E-14
1984.800  1.602E-14
1985.000  1.879E-14
1985.200  1.490E-14
1985.400  1.662E-14
1985.600  1.517E-14
1985.800  1.714E-14
1986.000  2.506E-14
1986.200  3.004E-14
1986.400  1.150E-14
1986.600  1.355E-14
1986.800  1.618E-14
1987.000  1.267E-14
1987.200  1.325E-14
1987.400  1.311E-14
1987.600  1.151E-14
1987.800  9.224E-15
1988.000  1.286E-14
1988.200  1.552E-14
1988.400  1.860E-14
1988.600  3.112E-14
1988.800  5.789E-14
1989.000  4.132E-14
1989.200  6.792E-15
1989.400  2.321E-14
1989.600  2.257E-14
1989.800  1.787E-14
1990.000  1.634E-14
1990.200  1.563E-14
1990.400  1.709E-14
1990.600  1.713E-14
1990.800  1.972E-14
1991.000  1.712E-14
1991.200  1.440E-14
1991.400  1.399E-14
1991.600  1.802E-14
1991.800  2.563E-14
1992.000  2.444E-14
1992.200  1.516E-14
1992.400  1.824E-14
1992.600  1.853E-14
1992.800  1.853E-14
1993.000  1.931E-14
1993.200  7.429E-14
1993.400  3.714E-13
1993.600  2.467E-13
1993.800  2.283E-14
1994.000  2.069E-14
1994.200  1.265E-14
1994.400  1.303E-14
1994.600  1.195E-14
1994.800  1.846E-14
1995.000  1.493E-14
1995.200  1.196E-14
1995.400  1.740E-14
1995.600  1.362E-14
1995.800  8.391E-15
1996.000  1.354E-14
1996.200  1.350E-14
1996.400  1.241E-14
1996.600  1.428E-14
1996.800  1.632E-14
1997.000  1.277E-14
1997.200  1.804E-14
1997.400  1.844E-14
1997.600  1.164E-14
1997.800  1.615E-14
1998.000  2.212E-14
1998.200  2.184E-14
1998.400  1.808E-14
1998.600  1.909E-14
1998.800  1.352E-14
1999.000  1.117E-14
1999.200  1.083E-14
1999.400  1.393E-14
1999.600  1.403E-14
1999.800  2.163E-14
2000.000  2.062E-14
2000.200  1.390E-14
2000.400  1.030E-14
2000.600  2.002E-14
2000.800  2.052E-14
2001.000  1.100E-14
2001.200  5.011E-15
2001.400  1.904E-14
2001.600  2.236E-14
2001.800  1.750E-14
2002.000  1.270E-14
2002.200  9.477E-15
2002.400  1.122E-14
2002.600  1.829E-14
2002.800  1.742E-14
2003.000  2.244E-14
2003.200  1.962E-14
2003.400  7.978E-15
2003.600  6.118E-15
2003.800  1.524E-14
2004.000  1.412E-14
2004.200  1.010E-14
2004.400  1.019E-14
2004.600  9.781E-15
2004.800  9.755E-15
2005.000  1.456E-14
2005.200  1.816E-14
2005.400  1.773E-14
2005.600  1.406E-14
2005.800  1.584E-14
2006.000  1.904E-14
2006.200  1.706E-14
2006.400  1.911E-14
2006.600  1.183E-14
2006.800  1.154E-14
2007.000  1.184E-14
2007.200  9.888E-15
2007.400  1.631E-14
2007.600  1.604E-14
2007.800  2.549E-14
2008.000  2.427E-14
2008.200  2.825E-14
2008.400  2.054E-14
2008.600  1.901E-14
2008.800  1.820E-14
2009.000  1.535E-14
2009.200  2.046E-14
2009.400  2.017E-14
2009.600  9.871E-15
2009.800  2.254E-14
2010.000  2.664E-14
2010.200  2.813E-14
2010.400  1.757E-14
2010.600  1.919E-14
2010.800  2.050E-14
2011.000  1.752E-14
2011.200  2.383E-14
2011.400  2.810E-14
2011.600  4.610E-14
2011.800  2.661E-14
2012.000  1.894E-14
2012.200  2.233E-14
2012.400  2.333E-14
2012.600  1.744E-14
2012.800  1.454E-14
2013.000  1.765E-14
2013.200  2.251E-14
2013.400  2.085E-14
2013.600  2.238E-14
2013.800  1.874E-14
2014.000  1.853E-14
2014.200  1.286E-14
2014.400  1.231E-14
2014.600  1.334E-14
2014.800  8.786E-15
2015.000  1.366E-14
2015.200  1.736E-14
2015.400  1.421E-14
2015.600  1.520E-14
2015.800  2.723E-14
2016.000  3.116E-14
2016.200  2.523E-14
2016.400  1.538E-14
2016.600  1.490E-14
2016.800  1.927E-14
2017.000  1.577E-14
2017.200  1.803E-14
2017.400  3.255E-14
2017.600  3.520E-14
2017.800  1.438E-14
2018.000  1.581E-14
2018.200  1.698E-14
2018.400  1.429E-14
2018.600  1.909E-14
2018.800  1.910E-14
2019.000  2.245E-14
2019.200  2.826E-14
2019.400  2.531E-14
2019.600  1.945E-14
2019.800  1.865E-14
2020.000  1.899E-14
2020.200  1.758E-14
2020.400  1.135E-14
2020.600  1.639E-14
2020.800  1.610E-14
2021.000  2.472E-14
2021.200  2.380E-14
2021.400  1.808E-14
2021.600  6.540E-15
2021.800  5.692E-15
2022.000  5.255E-15
2022.200  6.808E-15
2022.400  1.285E-14
2022.600  1.585E-14
2022.800  1.560E-14
2023.000  1.449E-14
2023.200  1.222E-14
2023.400  1.223E-14
2023.600  1.477E-14
2023.800  2.211E-14
2024.000  1.612E-14
2024.200  1.476E-14
2024.400  1.501E-14
2024.600  1.419E-14
2024.800  1.373E-14
2025.000  1.402E-14
2025.200  1.586E-14
2025.400  1.767E-14
2025.600  1.753E-14
2025.800  3.629E-14
2026.000  4.416E-14
2026.200  4.026E-14
2026.400  1.368E-14
2026.600  1.277E-14
2026.800  1.777E-14
2027.000  1.362E-14
2027.200  2.418E-14
2027.400  2.233E-14
2027.600  1.446E-14
2027.800  1.797E-14
2028.000  1.600E-14
2028.200  1.292E-14
2028.400  1.517E-14
2028.600  1.368E-14
2028.800  1.094E-14
2029.000  9.038E-15
2029.200  1.427E-14
2029.400  2.018E-14
2029.600  2.258E-14
2029.800  1.698E-14
2030.000  1.636E-14
2030.200  1.542E-14
2030.400  1.274E-14
2030.600  8.570E-15
2030.800  2.324E-14
2031.000  2.277E-14
2031.200  1.711E-14
2031.400  2.312E-14
2031.600  2.273E-14
2031.800  2.251E-14
2032.000  2.299E-14
2032.200  1.634E-14
2032.400  2.595E-14
2032.600  2.943E-14
2032.800  3.251E-14
2033.000  2.977E-14
2033.200  1.590E-14
2033.400  1.740E-14
2033.600  1.771E-14
2033.800  1.562E-14
2034.000  1.152E-14
2034.200  1.231E-14
2034.400  1.719E-14
2034.600  1.769E-14
2034.800  1.414E-14
2035.000  8.613E-15
2035.200  1.983E-14
2035.400  1.927E-14
2035.600  1.629E-14
2035.800  2.106E-14
2036.000  2.345E-14
2036.200  2.731E-14
2036.400  1.668E-14
2036.600  1.987E-14
2036.800  3.547E-14
2037.000  3.534E-14
2037.200  1.888E-14
2037.400  1.539E-14
2037.600  2.129E-14
2037.800  2.198E-14
2038.000  1.352E-14
2038.200  8.468E-15
2038.400  1.424E-14
2038.600  2.069E-14
2038.800  2.018E-14
2039.000  1.953E-14
2039.200  1.579E-14
2039.400  1.329E-14
2039.600  1.330E-14
2039.800  2.246E-14
2040.000  2.135E-14
2040.200  6.608E-14
2040.400  1.043E-13
2040.600  7.601E-14
2040.800  2.034E-14
2041.000  4.562E-14
2041.200  4.823E-14
2041.400  2.621E-14
2041.600  1.624E-14
2041.800  1.511E-14
2042.000  6.654E-15
2042.200  1.269E-14
2042.400  2.117E-14
2042.600  2.661E-14
2042.800  2.425E-14
2043.000  1.623E-14
2043.200  2.086E-14
2043.400  2.252E-14
2043.600  2.144E-14
2043.800  1.161E-14
2044.000  1.811E-14
2044.200  2.078E-14
2044.400  1.581E-14
2044.600  1.726E-14
2044.800  1.821E-14
2045.000  1.633E-14
2045.200  2.004E-14
2045.400  1.840E-14
2045.600  1.888E-14
2045.800  1.660E-14
2046.000  1.952E-14
2046.200  2.428E-14
2046.400  2.305E-14
2046.600  2.167E-14
2046.800  2.292E-14
2047.000  2.094E-14
2047.200  1.681E-14
2047.400  1.527E-14
2047.600  1.356E-14
2047.800  8.387E-15
2048.000  2.155E-14
2048.200  2.122E-14
2048.400  1.830E-14
2048.600  2.073E-14
2048.800  2.502E-14
2049.000  1.916E-14
2049.200  1.904E-14
2049.400  1.645E-14
2049.600  1.566E-14
2049.800  1.535E-14
2050.000  1.438E-14
2050.200  1.895E-14
2050.400  2.863E-14
2050.600  2.714E-14
2050.800  2.528E-14
2051.000  2.542E-14
2051.200  1.491E-14
2051.400  3.539E-14
2051.600  3.569E-14
2051.800  2.244E-14
2052.000  2.322E-14
2052.200  2.555E-14
2052.400  2.452E-14
2052.600  2.285E-14
2052.800  2.388E-14
2053.000  2.167E-14
2053.200  2.013E-14
2053.400  1.933E-14
2053.600  3.175E-14
2053.800  3.886E-14
2054.000  2.651E-14
2054.200  1.564E-14
2054.400  1.444E-14
2054.600  1.338E-14
2054.800  1.642E-14
2055.000  1.078E-14
2055.200  1.504E-14
2055.400  1.386E-14
2055.600  2.447E-14
2055.800  4.094E-14
2056.000  4.211E-14
2056.200  4.197E-14
2056.400  3.140E-14
2056.600  2.169E-14
2056.800  2.544E-14
2057.000  2.132E-14
2057.200  1.881E-14
2057.400  2.125E-14
2057.600  2.254E-14
2057.800  2.281E-14
2058.000  1.508E-14
2058.200  1.830E-14
2058.400  1.835E-14
2058.600  1.573E-14
2058.800  2.139E-14
2059.000  2.195E-14
2059.200  1.592E-14
2059.400  1.708E-14
2059.600  2.938E-14
2059.800  2.956E-14
2060.000  1.783E-14
2060.200  1.671E-14
2060.400  1.655E-14
2060.600  1.936E-14
2060.800  2.139E-14
2061.000  1.974E-14
2061.200  1.904E-14
2061.400  1.796E-14
2061.600  1.615E-14
2061.800  4.173E-14
2062.000  5.105E-14
2062.200  5.178E-14
2062.400  2.758E-14
2062.600  9.309E-15
2062.800  1.105E-14
2063.000  1.552E-14
2063.200  1.694E-14
2063.400  1.723E-14
2063.600  1.611E-14
2063.800  1.511E-14
2064.000  4.695E-14
2064.200  4.910E-14
2064.400  3.196E-14
2064.600  1.981E-14
2064.800  1.934E-14
2065.000  2.329E-14
2065.200  2.285E-14
2065.400  2.318E-14
2065.600  4.088E-14
2065.800  1.456E-13
2066.000  1.745E-13
2066.200  1.369E-13
2066.400  1.166E-14
2066.600  2.258E-14
2066.800  2.322E-14
2067.000  1.349E-14
2067.200  1.736E-14
2067.400  2.332E-14
2067.600  2.194E-14
2067.800  1.479E-14
2068.000  2.496E-14
2068.200  2.941E-14
2068.400  3.324E-14
2068.600  2.169E-14
2068.800  1.070E-14
2069.000  1.875E-14
2069.200  2.024E-14
2069.400  1.879E-14
2069.600  3.042E-14
2069.800  3.337E-14
2070.000  2.235E-14
2070.200  1.932E-14
2070.400  1.652E-14
2070.600  2.349E-14
2070.800  2.361E-14
2071.000  2.519E-14
2071.200  2.463E-14
2071.400  2.485E-14
2071.600  2.462E-14
2071.800  2.186E-14
2072.000  2.609E-14
2072.200  2.753E-14
2072.400  2.328E-14
2072.600  2.301E-14
2072.800  2.356E-14
2073.000  2.198E-14
2073.200  2.655E-14
2073.400  2.670E-14
2073.600  1.875E-14
2073.800  2.381E-14
2074.000  2.632E-14
2074.200  2.590E-14
2074.400  2.591E-14
2074.600  2.376E-14
2074.800  1.819E-14
2075.000  2.052E-14
2075.200  2.169E-14
2075.400  2.788E-14
2075.600  2.204E-14
2075.800  2.742E-14
2076.000  3.083E-14
2076.200  2.808E-14
2076.400  2.364E-14
2076.600  1.725E-14
2076.800  2.825E-14
2077.000  2.508E-14
2077.200  2.218E-14
2077.400  2.599E-14
2077.600  2.556E-14
2077.800  1.968E-14
2078.000  1.821E-14
2078.200  2.325E-14
2078.400  2.456E-14
2078.600  2.015E-14
2078.800  3.182E-14
2079.000  3.254E-14
2079.200  1.530E-14
2079.400  1.835E-14
2079.600  2.288E-14
2079.800  2.562E-14
2080.000  2.739E-14
2080.200  2.366E-14
2080.400  2.896E-14
2080.600  3.613E-14
2080.800  3.594E-14
2081.000  2.573E-14
2081.200  2.449E-14
2081.400  1.831E-14
2081.600  2.199E-14
2081.800  1.783E-14
2082.000  1.636E-14
2082.200  2.399E-14
2082.400  2.392E-14
2082.600  2.330E-14
2082.800  2.595E-14
2083.000  2.258E-14
2083.200  1.746E-14
2083.400  2.562E-14
2083.600  3.111E-14
2083.800  2.980E-14
2084.000  7.173E-14
2084.200  7.234E-14
2084.400  2.630E-14
2084.600  1.931E-14
2084.800  2.861E-14
2085.000  2.918E-14
2085.200  2.501E-14
2085.400  1.656E-14
2085.600  1.700E-14
2085.800  2.034E-14
2086.000  2.424E-14
2086.200  2.075E-14
2086.400  2.330E-14
2086.600  2.920E-14
2086.800  2.449E-14
2087.000  2.720E-14
2087.200  2.540E-14
2087.400  2.661E-14
2087.600  2.076E-14
2087.800  2.112E-14
2088.000  2.157E-14
2088.200  2.225E-14
2088.400  2.903E-14
2088.600  3.286E-14
2088.800  3.576E-14
2089.000  3.088E-14
2089.200  3.062E-14
2089.400  2.345E-14
2089.600  1.889E-14
2089.800  2.386E-14
2090.000  3.191E-14
2090.200  3.148E-14
2090.400  2.284E-14
2090.600  2.262E-14
2090.800  1.496E-14
2091.000  1.987E-14
2091.200  1.961E-14
2091.400  1.432E-14
2091.600  1.851E-14
2091.800  2.417E-14
2092.000  1.975E-14
2092.200  2.473E-14
2092.400  2.527E-14
2092.600  2.107E-14
2092.800  2.504E-14
2093.000  2.315E-14
2093.200  2.295E-14
2093.400  3.030E-14
2093.600  3.045E-14
2093.800  2.578E-14
2094.000  5.061E-14
2094.200  3.768E-14
2094.400  2.443E-14
2094.600  1.877E-14
2094.800  2.279E-14
2095.000  2.449E-14
2095.200  3.487E-14
2095.400  9.827E-14
2095.600  7.429E-14
2095.800  2.179E-14
2096.000  2.609E-14
2096.200  2.465E-14
2096.400  2.435E-14
2096.600  2.611E-14
2096.800  2.894E-14
2097.000  2.574E-14
2097.200  2.554E-14
2097.400  2.626E-14
2097.600  1.914E-14
2097.800  2.124E-14
2098.000  2.754E-14
2098.200  2.512E-14
2098.400  2.163E-14
2098.600  2.412E-14
2098.800  2.800E-14
2099.000  2.692E-14
2099.200  2.356E-14
2099.400  2.139E-14
2099.600  2.236E-14
2099.800  2.325E-14
2100.000  1.726E-14
2100.200  1.706E-14
2100.400  1.816E-14
2100.600  1.548E-14
2100.800  1.583E-14
2101.000  1.746E-14
2101.200  1.530E-14
2101.400  1.678E-14
2101.600  1.906E-14
2101.800  2.327E-14
2102.000  2.632E-14
2102.200  2.500E-14
2102.400  3.355E-14
2102.600  3.415E-14
2102.800  2.497E-14
2103.000  1.706E-14
2103.200  1.825E-14
2103.400  1.469E-14
2103.600  1.958E-14
2103.800  1.942E-14
2104.000  2.281E-14
2104.200  2.355E-14
2104.400  2.152E-14
2104.600  2.760E-14
2104.800  2.625E-14
2105.000  2.509E-14
2105.200  2.421E-14
2105.400  2.378E-14
2105.600  3.128E-14
2105.800  2.924E-14
2106.000  2.362E-14
2106.200  2.676E-14
2106.400  2.511E-14
2106.600  1.892E-14
2106.800  1.271E-14
2107.000  1.915E-14
2107.200  2.354E-14
2107.400  2.939E-14
2107.600  2.882E-14
2107.800  2.173E-14
2108.000  2.235E-14
2108.200  2.302E-14
2108.400  2.003E-14
2108.600  1.983E-14
2108.800  2.080E-14
2109.000  2.875E-14
2109.200  2.006E-14
2109.400  1.475E-14
2109.600  1.731E-14
2109.800  2.664E-14
2110.000  2.084E-14
2110.200  1.847E-14
2110.400  2.151E-14
2110.600  2.110E-14
2110.800  1.489E-14
2111.000  2.805E-14
2111.200  2.904E-14
2111.400  1.528E-14
2111.600  1.747E-14
2111.800  1.838E-14
2112.000  1.760E-14
2112.200  2.194E-14
2112.400  3.754E-14
2112.600  2.908E-14
2112.800  2.683E-14
2113.000  2.818E-14
2113.200  2.731E-14
2113.400  1.560E-14
2113.600  1.557E-14
2113.800  1.665E-14
2114.000  2.242E-14
2114.200  2.762E-14
2114.400  2.120E-14
2114.600  2.420E-14
2114.800  2.321E-14
2115.000  1.168E-14
2115.200  1.089E-14
2115.400  2.571E-14
2115.600  2.291E-14
2115.800  2.500E-14
2116.000  2.754E-14
2116.200  2.592E-14
2116.400  2.700E-14
2116.600  2.949E-14
2116.800  3.370E-14
2117.000  2.766E-14
2117.200  2.580E-14
2117.400  2.416E-14
2117.600  3.291E-14
2117.800  3.349E-14
2118.000  2.555E-14
2118.200  3.058E-14
2118.400  2.374E-14
2118.600  2.658E-14
2118.800  2.182E-14
2119.000  2.221E-14
2119.200  2.536E-14
2119.400  3.310E-14
2119.600  2.688E-14
2119.800  2.443E-14
2120.000  3.109E-14
2120.200  2.877E-14
2120.400  3.688E-14
2120.600  3.761E-14
2120.800  3.417E-14
2121.000  3.398E-14
2121.200  3.233E-14
2121.400  3.114E-14
2121.600  2.437E-14
2121.800  1.223E-14
2122.000  2.112E-14
2122.200  2.771E-14
2122.400  2.126E-14
2122.600  1.873E-14
2122.800  2.059E-14
2123.000  2.283E-14
2123.200  2.767E-14
2123.400  2.614E-14
2123.600  2.122E-14
2123.800  1.881E-14
2124.000  2.024E-14
2124.200  2.056E-14
2124.400  6.359E-14
2124.600  8.750E-14
2124.800  4.376E-14
2125.000  2.452E-14
2125.200  2.393E-14
2125.400  1.642E-13
2125.600  2.438E-13
2125.800  1.165E-13
2126.000  2.120E-14
2126.200  2.554E-14
2126.400  2.681E-14
2126.600  1.754E-14
2126.800  3.137E-14
2127.000  3.149E-14
2127.200  1.964E-14
2127.400  1.463E-14
2127.600  1.381E-14
2127.800  1.903E-14
2128.000  1.769E-14
2128.200  1.756E-14
2128.400  1.588E-14
2128.600  2.346E-14
2128.800  3.760E-14
2129.000  8.589E-14
2129.200  7.995E-14
2129.400  2.962E-14
2129.600  2.820E-14
2129.800  2.224E-14
2130.000  1.742E-14
2130.200  2.415E-14
2130.400  2.442E-14
2130.600  3.210E-14
2130.800  3.192E-14
2131.000  2.139E-14
2131.200  2.576E-14
2131.400  2.679E-14
2131.600  2.057E-14
2131.800  2.103E-14
2132.000  2.251E-14
2132.200  2.808E-14
2132.400  2.018E-14
2132.600  1.775E-14
2132.800  1.814E-14
2133.000  2.295E-14
2133.200  2.252E-14
2133.400  2.391E-14
2133.600  2.332E-14
2133.800  2.273E-14
2134.000  2.456E-14
2134.200  2.177E-14
2134.400  1.571E-14
2134.600  1.341E-14
2134.800  1.498E-14
2135.000  2.011E-14
2135.200  1.812E-14
2135.400  1.188E-14
2135.600  1.708E-14
2135.800  1.762E-14
2136.000  1.732E-14
2136.200  2.164E-14
2136.400  2.162E-14
2136.600  1.684E-14
2136.800  1.596E-14
2137.000  1.641E-14
2137.200  3.072E-14
2137.400  3.255E-14
2137.600  3.386E-14
2137.800  2.480E-14
2138.000  5.837E-14
2138.200  8.373E-14
2138.400  6.761E-14
2138.600  1.847E-14
2138.800  1.760E-14
2139.000  2.144E-14
2139.200  2.809E-14
2139.400  7.178E-14
2139.600  7.227E-14
2139.800  3.276E-14
2140.000  9.191E-14
2140.200  9.204E-14
2140.400  3.697E-14
2140.600  1.761E-14
2140.800  2.835E-14
2141.000  2.531E-14
2141.200  3.003E-14
2141.400  3.071E-14
2141.600  3.042E-14
2141.800  3.380E-14
2142.000  2.534E-14
2142.200  2.006E-14
2142.400  2.097E-14
2142.600  1.912E-14
2142.800  2.939E-14
2143.000  7.779E-14
2143.200  1.474E-13
2143.400  1.461E-13
2143.600  7.358E-14
2143.800  2.580E-14
2144.000  2.097E-14
2144.200  2.481E-14
2144.400  2.581E-14
2144.600  2.059E-14
2144.800  1.915E-14
2145.000  2.056E-14
2145.200  3.618E-14
2145.400  3.739E-14
2145.600  3.190E-14
2145.800  2.985E-14
2146.000  2.973E-14
2146.200  4.213E-14
2146.400  1.441E-13
2146.600  1.552E-13
2146.800  5.246E-14
2147.000  2.404E-14
2147.200  2.043E-14
2147.400  1.817E-14
2147.600  1.904E-14
2147.800  1.939E-14
2148.000  2.095E-14
2148.200  2.083E-14
2148.400  2.587E-14
2148.600  3.802E-14
2148.800  3.727E-14
2149.000  4.107E-14
2149.200  3.980E-14
2149.400  2.982E-14
2149.600  1.795E-14
2149.800  2.894E-14
2150.000  3.104E-14
2150.200  3.767E-14
2150.400  3.829E-14
2150.600  2.945E-14
2150.800  2.920E-14
2151.000  3.782E-14
2151.200  3.782E-14
2151.400  2.014E-14
2151.600  2.134E-14
2151.800  2.964E-14
2152.000  3.360E-14
2152.200  2.713E-14
2152.400  2.675E-14
2152.600  4.886E-14
2152.800  4.216E-14
2153.000  3.967E-14
2153.200  3.812E-14
2153.400  2.558E-14
2153.600  3.299E-14
2153.800  4.713E-14
2154.000  4.116E-14
2154.200  5.794E-14
2154.400  6.035E-14
2154.600  2.445E-14
2154.800  2.728E-14
2155.000  4.004E-14
2155.200  5.472E-14
2155.400  3.125E-14
2155.600  2.765E-14
2155.800  4.257E-14
2156.000  5.135E-14
2156.200  2.633E-14
2156.400  3.405E-14
2156.600  3.527E-14
2156.800  3.518E-14
2157.000  1.783E-14
2157.200  2.915E-14
2157.400  3.798E-14
2157.600  4.632E-14
2157.800  4.089E-14
2158.000  3.731E-14
2158.200  5.294E-14
2158.400  4.090E-14
2158.600  3.950E-14
2158.800  2.332E-14
2159.000  1.896E-14
2159.200  2.537E-14
2159.400  1.268E-14
2159.600  5.488E-14
2159.800  3.867E-14
2160.000  3.303E-14
2160.200  2.904E-14
2160.400  2.417E-14
2160.600  4.929E-14
2160.800  4.655E-14
2161.000  4.655E-14
2161.200  5.716E-14
2161.400  4.746E-14
2161.600  4.051E-13
2161.800  3.941E-13
2162.000  4.110E-14
2162.200  4.496E-14
2162.400  1.010E-13
2162.600  1.099E-13
2162.800  5.842E-14
2163.000  5.825E-14
2163.200  2.193E-14
2163.400  2.914E-14
2163.600  4.430E-14
2163.800  3.821E-14
2164.000  3.818E-14
2164.200  3.786E-14
2164.400  3.535E-14
2164.600  5.521E-14
2164.800  6.334E-14
2165.000  3.775E-14
2165.200  3.145E-14
2165.400  5.635E-14
2165.600  2.115E-14
2165.800  4.568E-14
2166.000  3.801E-14
2166.200  2.521E-14
2166.400  2.167E-14
2166.600  2.569E-14
2166.800  3.956E-14
2167.000  3.366E-14
2167.200  2.618E-14
2167.400  1.729E-14
2167.600  3.396E-14
2167.800  3.441E-14
2168.000  3.399E-14
2168.200  3.384E-14
2168.400  2.797E-14
2168.600  6.668E-14
2168.800  7.923E-14
2169.000  5.188E-14
2169.200  5.172E-14
2169.400  5.401E-14
2169.600  3.661E-14
2169.800  2.429E-14
2170.000  4.486E-14
2170.200  5.054E-14
2170.400  4.341E-14
2170.600  4.185E-14
2170.800  3.722E-14
2171.000  3.229E-14
2171.200  2.007E-14
2171.400  3.016E-14
2171.600  2.935E-14
2171.800  1.257E-14
2172.000  3.850E-14
2172.200  5.389E-14
2172.400  3.628E-14
2172.600  2.924E-14
2172.800  5.449E-14
2173.000  4.386E-14
2173.200  4.250E-14
2173.400  5.306E-14
2173.600  5.016E-14
2173.800  3.298E-14
2174.000  3.310E-14
2174.200  2.984E-14
2174.400  4.906E-14
2174.600  1.310E-14
2174.800  3.775E-14
2175.000  3.650E-14
2175.200  3.460E-14
2175.400  3.439E-14
2175.600  3.179E-14
2175.800  8.840E-14
2176.000  9.913E-14
2176.200  5.227E-14
2176.400  4.043E-14
2176.600  2.699E-14
2176.800  3.604E-14
2177.000  3.095E-14
2177.200  3.078E-14
2177.400  2.096E-14
2177.600  3.020E-14
2177.800  3.916E-14
2178.000  2.391E-14
2178.200  4.610E-14
2178.400  4.644E-14
2178.600  2.276E-14
2178.800  4.969E-14
2179.000  4.012E-14
2179.200  3.949E-14
2179.400  3.463E-14
2179.600  4.593E-14
2179.800  4.114E-14
2180.000  2.678E-14
2180.200  4.895E-14
2180.400  4.254E-14
2180.600  2.926E-14
2180.800  3.357E-14
2181.000  3.176E-14
2181.200  4.913E-14
2181.400  4.860E-14
2181.600  4.533E-14
2181.800  4.679E-14
2182.000  4.431E-14
2182.200  3.206E-14
2182.400  3.798E-14
2182.600  4.443E-14
2182.800  3.436E-14
2183.000  3.712E-14
2183.200  3.321E-14
2183.400  5.445E-14
2183.600  5.180E-14
2183.800  3.842E-14
2184.000  2.396E-14
2184.200  3.406E-14
2184.400  3.187E-14
2184.600  4.276E-14
2184.800  3.927E-14
2185.000  4.128E-14
2185.200  3.744E-14
2185.400  4.257E-14
2185.600  5.317E-14
2185.800  3.345E-14
2186.000  4.872E-14
2186.200  3.864E-14
2186.400  4.089E-14
2186.600  4.833E-14
2186.800  2.566E-14
2187.000  1.884E-14
2187.200  3.584E-14
2187.400  3.548E-14
2187.600  2.300E-14
2187.800  2.788E-14
2188.000  3.888E-14
2188.200  3.049E-14
2188.400  3.027E-14
2188.600  3.362E-14
2188.800  5.666E-14
2189.000  5.903E-14
2189.200  5.303E-14
2189.400  4.159E-14
2189.600  4.768E-14
2189.800  3.027E-14
2190.000  2.768E-14
2190.200  4.730E-14
2190.400  5.961E-14
2190.600  4.424E-14
2190.800  5.224E-14
2191.000  5.108E-14
2191.200  3.160E-14
2191.400  2.801E-14
2191.600  2.580E-14
2191.800  3.283E-14
2192.000  5.769E-14
2192.200  3.025E-14
2192.400  2.045E-14
2192.600  3.500E-14
2192.800  2.187E-14
2193.000  3.609E-14
2193.200  4.210E-14
2193.400  5.209E-14
2193.600  5.911E-14
2193.800  4.314E-14
2194.000  4.598E-14
2194.200  4.650E-14
2194.400  5.473E-14
2194.600  4.785E-14
2194.800  5.699E-14
2195.000  5.685E-14
2195.200  5.461E-14
2195.400  5.209E-14
2195.600  3.508E-14
2195.800  4.909E-14
2196.000  5.238E-14
2196.200  3.839E-14
2196.400  4.367E-14
2196.600  3.066E-14
2196.800  5.001E-14
2197.000  3.835E-14
2197.200  6.882E-14
2197.400  4.304E-14
2197.600  4.264E-14
2197.800  2.452E-14
2198.000  6.474E-14
2198.200  4.870E-14
2198.400  4.504E-14
2198.600  5.037E-14
2198.800  2.618E-14
2199.000  3.588E-14
2199.200  5.350E-14
2199.400  5.350E-14
2199.600  4.101E-14
2199.800  5.467E-14
2200.000  6.229E-14
2200.200  5.531E-14
2200.400  4.746E-14
2200.600  5.479E-14
2200.800  2.761E-14
2201.000  3.549E-14
2201.200  3.007E-14
2201.400  3.867E-14
2201.600  3.213E-14
2201.800  3.073E-14
2202.000  2.221E-14
2202.200  4.931E-14
2202.400  5.061E-14
2202.600  4.378E-14
2202.800  4.953E-14
2203.000  6.738E-14
2203.200  5.234E-14
2203.400  5.356E-14
2203.600  4.445E-14
2203.800  5.875E-14
2204.000  5.642E-14
2204.200  5.119E-14
2204.400  4.831E-14
2204.600  4.863E-14
2204.800  5.632E-14
2205.000  5.901E-14
2205.200  3.355E-14
2205.400  4.431E-14
2205.600  4.784E-14
2205.800  5.227E-14
2206.000  5.690E-14
2206.200  3.516E-14
2206.400  4.596E-14
2206.600  4.411E-14
2206.800  3.184E-14
2207.000  3.857E-14
2207.200  2.995E-14
2207.400  3.922E-14
2207.600  4.544E-14
2207.800  4.951E-14
2208.000  6.526E-14
2208.200  4.111E-14
2208.400  5.396E-14
2208.600  5.725E-14
2208.800  4.918E-14
2209.000  3.335E-14
2209.200  3.013E-14
2209.400  5.232E-14
2209.600  4.539E-14
2209.800  5.339E-14
2210.000  3.830E-14
2210.200  5.082E-14
2210.400  3.912E-14
2210.600  3.117E-14
2210.800  3.622E-14
2211.000  2.642E-14
2211.200  4.562E-14
2211.400  8.277E-14
2211.600  2.134E-14
2211.800  2.230E-14
2212.000  3.609E-14
2212.200  4.771E-14
2212.400  4.132E-14
2212.600  4.607E-14
2212.800  2.669E-14
2213.000  5.176E-14
2213.200  5.440E-14
2213.400  5.511E-14
2213.600  6.690E-14
2213.800  6.276E-14
2214.000  7.877E-14
2214.200  7.765E-14
2214.400  4.529E-14
2214.600  3.876E-14
2214.800  3.964E-14
2215.000  5.294E-14
2215.200  3.280E-14
2215.400  4.070E-14
2215.600  4.651E-14
2215.800  4.922E-14
2216.000  2.858E-14
2216.200  3.768E-14
2216.400  5.029E-14
2216.600  3.708E-14
2216.800  5.273E-14
2217.000  6.153E-14
2217.200  9.965E-14
2217.400  4.489E-14
2217.600  3.042E-14
2217.800  3.245E-14
2218.000  4.329E-14
2218.200  4.696E-14
2218.400  4.864E-14
2218.600  6.419E-14
2218.800  2.553E-14
2219.000  5.368E-14
2219.200  4.373E-14
2219.400  3.887E-14
2219.600  4.266E-14
2219.800  4.271E-14
2220.000  4.544E-14
2220.200  4.169E-14
2220.400  3.372E-14
2220.600  2.772E-14
2220.800  6.561E-14
2221.000  5.549E-14
2221.200  6.575E-14
2221.400  7.051E-14
2221.600  3.999E-14
2221.800  4.854E-14
2222.000  5.334E-14
2222.200  6.511E-14
2222.400  2.683E-14
2222.600  5.014E-14
2222.800  5.438E-14
2223.000  3.446E-14
2223.200  3.958E-14
2223.400  3.176E-14
2223.600  4.374E-14
2223.800  5.243E-14
2224.000  2.658E-14
2224.200  3.948E-14
2224.400  5.617E-14
2224.600  4.634E-14
2224.800  5.127E-14
2225.000  3.459E-14
2225.200  3.142E-14
2225.400  3.040E-14
2225.600  4.860E-14
2225.800  5.125E-14
2226.000  4.198E-14
2226.200  4.601E-14
2226.400  2.723E-14
2226.600  5.565E-14
2226.800  4.138E-14
2227.000  3.584E-14
2227.200  5.333E-14
2227.400  5.432E-14
2227.600  3.820E-14
2227.800  2.931E-14
2228.000  3.241E-14
2228.200  2.925E-14
2228.400  3.448E-14
2228.600  5.100E-14
2228.800  5.779E-14
2229.000  6.206E-14
2229.200  3.686E-14
2229.400  2.675E-14
2229.600  3.765E-14
2229.800  3.569E-14
2230.000  3.256E-14
2230.200  3.997E-14
2230.400  5.519E-14
2230.600  2.960E-14
2230.800  5.935E-14
2231.000  5.025E-14
2231.200  4.533E-14
2231.400  2.896E-14
2231.600  3.226E-14
2231.800  3.677E-14
2232.000  4.084E-14
2232.200  3.630E-14
2232.400  7.006E-14
2232.600  6.311E-14
2232.800  5.519E-14
2233.000  5.920E-14
2233.200  6.157E-14
2233.400  6.400E-14
2233.600  5.897E-14
2233.800  5.592E-14
2234.000  9.180E-14
2234.200  2.229E-13
2234.400  1.788E-13
2234.600  4.632E-14
2234.800  5.541E-14
2235.000  4.229E-14
2235.200  4.665E-14
2235.400  4.395E-14
2235.600  7.076E-14
2235.800  6.179E-14
2236.000  5.688E-14
2236.200  5.536E-14
2236.400  5.124E-14
2236.600  5.207E-14
2236.800  4.490E-14
2237.000  2.672E-13
2237.200  4.114E-13
2237.400  1.561E-13
2237.600  5.389E-14
2237.800  5.979E-14
2238.000  5.396E-14
2238.200  5.004E-14
2238.400  4.848E-14
2238.600  6.020E-14
2238.800  3.551E-14
2239.000  4.592E-14
2239.200  5.307E-14
2239.400  5.156E-14
2239.600  3.718E-14
2239.800  5.774E-14
2240.000  5.797E-14
2240.200  5.702E-14
2240.400  5.262E-14
2240.600  1.510E-13
2240.800  4.313E-13
2241.000  3.249E-13
2241.200  4.656E-14
2241.400  5.028E-14
2241.600  6.304E-14
2241.800  3.539E-14
2242.000  2.931E-14
2242.200  3.622E-14
2242.400  4.802E-14
2242.600  5.227E-14
2242.800  4.247E-14
2243.000  4.773E-14
2243.200  3.319E-14
2243.400  5.012E-14
2243.600  2.807E-14
2243.800  4.120E-14
2244.000  5.487E-14
2244.200  8.219E-14
2244.400  1.028E-13
2244.600  4.084E-14
2244.800  6.083E-14
2245.000  2.495E-13
2245.200  2.490E-13
2245.400  4.128E-14
2245.600  4.052E-14
2245.800  4.205E-14
2246.000  4.698E-14
2246.200  3.417E-14
2246.400  5.318E-14
2246.600  4.818E-14
2246.800  6.839E-14
2247.000  5.933E-14
2247.200  7.354E-14
2247.400  7.370E-14
2247.600  3.169E-14
2247.800  3.843E-14
2248.000  5.471E-14
2248.200  5.481E-14
2248.400  4.445E-14
2248.600  4.190E-14
2248.800  4.749E-14
2249.000  5.042E-14
2249.200  3.249E-14
2249.400  5.212E-13
2249.600  1.042E-12
2249.800  1.142E-12
2250.000  2.636E-13
2250.200  4.588E-14
2250.400  1.713E-13
2250.600  5.812E-13
2250.800  5.707E-13
2251.000  8.833E-14
2251.200  4.588E-13
2251.400  7.218E-13
2251.600  7.234E-13
2251.800  2.216E-13
2252.000  5.117E-13
2252.200  5.042E-13
2252.400  6.750E-14
2252.600  6.659E-14
2252.800  6.639E-14
2253.000  6.098E-14
2253.200  7.001E-14
2253.400  6.177E-13
2253.600  7.877E-13
2253.800  7.900E-13
2254.000  1.066E-13
2254.200  4.102E-14
2254.400  3.528E-14
2254.600  6.412E-14
2254.800  4.873E-13
2255.000  4.839E-13
2255.200  6.972E-14
2255.400  3.157E-14
2255.600  6.197E-14
2255.800  6.973E-14
2256.000  7.898E-14
2256.200  8.315E-14
2256.400  5.773E-13
2256.600  5.744E-13
2256.800  4.099E-14
2257.000  3.939E-14
2257.200  3.850E-14
2257.400  3.007E-14
2257.600  5.333E-14
2257.800  5.996E-14
2258.000  6.407E-14
2258.200  2.957E-14
2258.400  4.234E-14
2258.600  5.233E-14
2258.800  3.833E-14
2259.000  6.141E-14
2259.200  5.931E-14
2259.400  4.216E-14
2259.600  5.275E-14
2259.800  5.857E-14
2260.000  4.274E-14
2260.200  2.514E-13
2260.400  1.468E-12
2260.600  1.444E-12
2260.800  1.094E-12
2261.000  2.436E-13
2261.200  6.644E-13
2261.400  7.507E-13
2261.600  4.410E-13
2261.800  5.131E-14
2262.000  3.012E-14
2262.200  5.623E-14
2262.400  6.801E-14
2262.600  7.377E-14
2262.800  6.500E-14
2263.000  5.331E-13
2263.200  6.396E-13
2263.400  4.658E-13
2263.600  5.672E-14
2263.800  3.772E-14
2264.000  4.115E-14
2264.200  4.417E-14
2264.400  6.313E-14
2264.600  5.910E-14
2264.800  4.186E-14
2265.000  3.991E-14
2265.200  3.462E-14
2265.400  5.690E-14
2265.600  6.239E-14
2265.800  1.132E-13
2266.000  7.942E-14
2266.200  1.216E-13
2266.400  5.404E-13
2266.600  5.455E-13
2266.800  9.277E-14
2267.000  3.449E-14
2267.200  3.642E-14
2267.400  3.782E-14
2267.600  3.297E-14
2267.800  3.936E-13
2268.000  7.813E-13
2268.200  8.432E-13
2268.400  2.876E-13
2268.600  4.780E-14
2268.800  1.535E-13
2269.000  5.741E-13
2269.200  8.884E-13
2269.400  9.215E-13
2269.600  9.942E-14
2269.800  5.490E-14
2270.000  5.526E-14
2270.200  5.319E-14
2270.400  5.333E-14
2270.600  4.268E-14
2270.800  4.213E-14
2271.000  5.363E-14
2271.200  5.435E-14
2271.400  3.763E-14
2271.600  7.532E-14
2271.800  6.314E-14
2272.000  7.985E-14
2272.200  7.660E-14
2272.400  4.299E-14
2272.600  4.340E-14
2272.800  5.375E-14
2273.000  7.183E-14
2273.200  3.841E-14
2273.400  4.268E-14
2273.600  5.259E-14
2273.800  4.576E-14
2274.000  5.364E-14
2274.200  4.196E-14
2274.400  3.984E-14
2274.600  3.796E-14
2274.800  5.645E-14
2275.000  5.806E-14
2275.200  4.171E-14
2275.400  6.319E-14
2275.600  5.136E-14
2275.800  6.102E-14
2276.000  5.392E-14
2276.200  4.009E-14
2276.400  3.068E-13
2276.600  3.855E-13
2276.800  9.073E-14
2277.000  4.049E-14
2277.200  4.843E-14
2277.400  9.964E-14
2277.600  8.276E-14
2277.800  1.365E-13
2278.000  5.906E-14
2278.200  6.243E-14
2278.400  6.305E-14
2278.600  4.510E-14
2278.800  4.412E-14
2279.000  6.240E-14
2279.200  5.337E-14
2279.400  5.309E-14
2279.600  5.621E-14
2279.800  6.653E-14
2280.000  1.408E-13
2280.200  1.459E-12
2280.400  1.575E-12
2280.600  1.638E-12
2280.800  1.799E-13
2281.000  5.757E-14
2281.200  6.948E-14
2281.400  6.614E-14
2281.600  5.027E-14
2281.800  6.312E-14
2282.000  6.755E-14
2282.200  7.406E-14
2282.400  5.791E-14
2282.600  6.715E-14
2282.800  6.220E-14
2283.000  8.708E-14
2283.200  7.315E-14
2283.400  4.180E-14
2283.600  4.894E-14
2283.800  5.068E-14
2284.000  5.173E-14
2284.200  5.226E-14
2284.400  8.184E-14
2284.600  6.822E-14
2284.800  5.577E-14
2285.000  6.415E-14
2285.200  6.589E-14
2285.400  5.691E-14
2285.600  5.425E-14
2285.800  7.546E-14
2286.000  6.645E-14
2286.200  8.319E-14
2286.400  6.638E-14
2286.600  4.757E-14
2286.800  2.500E-14
2287.000  4.765E-14
2287.200  4.869E-14
2287.400  5.275E-14
2287.600  3.642E-14
2287.800  4.355E-14
2288.000  4.941E-14
2288.200  3.910E-14
2288.400  5.272E-14
2288.600  4.957E-14
2288.800  8.585E-14
2289.000  6.398E-14
2289.200  6.871E-14
2289.400  5.934E-14
2289.600  3.968E-14
2289.800  6.979E-14
2290.000  6.447E-14
2290.200  7.628E-14
2290.400  1.236E-13
2290.600  1.081E-13
2290.800  1.092E-13
2291.000  6.158E-14
2291.200  6.019E-14
2291.400  1.001E-13
2291.600  1.222E-13
2291.800  6.309E-14
2292.000  4.994E-14
2292.200  4.570E-14
2292.400  4.027E-14
2292.600  6.165E-14
2292.800  8.986E-14
2293.000  3.611E-14
2293.200  6.695E-14
2293.400  8.738E-14
2293.600  9.778E-14
2293.800  5.933E-14
2294.000  6.650E-14
2294.200  8.673E-14
2294.400  4.690E-14
2294.600  5.710E-14
2294.800  8.022E-14
2295.000  5.535E-14
2295.200  6.084E-14
2295.400  6.542E-14
2295.600  5.530E-14
2295.800  5.707E-14
2296.000  6.812E-14
2296.200  7.565E-14
2296.400  8.947E-14
2296.600  5.498E-14
2296.800  1.369E-13
2297.000  1.663E-13
2297.200  1.589E-13
2297.400  6.265E-14
2297.600  9.508E-14
2297.800  9.269E-14
2298.000  9.172E-14
2298.200  7.420E-14
2298.400  4.855E-14
2298.600  6.431E-14
2298.800  3.498E-14
2299.000  4.252E-14
2299.200  7.103E-14
2299.400  1.455E-13
2299.600  1.192E-13
2299.800  4.701E-14
2300.000  6.198E-14
2300.200  4.623E-14
2300.400  6.668E-14
2300.600  5.856E-14
2300.800  4.909E-14
2301.000  4.381E-14
2301.200  1.282E-13
2301.400  1.231E-13
2301.600  3.956E-14
2301.800  4.603E-14
2302.000  3.903E-14
2302.200  3.731E-14
2302.400  7.303E-14
2302.600  5.453E-14
2302.800  6.958E-14
2303.000  3.974E-14
2303.200  9.351E-14
2303.400  1.310E-13
2303.600  1.316E-13
2303.800  6.985E-14
2304.000  5.671E-14
2304.200  4.752E-14
2304.400  4.120E-14
2304.600  5.900E-14
2304.800  4.306E-14
2305.000  7.094E-14
2305.200  4.975E-14
2305.400  1.791E-13
2305.600  1.789E-13
2305.800  5.078E-14
2306.000  8.077E-14
2306.200  7.522E-14
2306.400  6.520E-14
2306.600  7.952E-14
2306.800  5.595E-14
2307.000  5.509E-14
2307.200  6.654E-14
2307.400  5.822E-14
2307.600  7.658E-14
2307.800  5.219E-14
2308.000  6.684E-14
2308.200  7.068E-14
2308.400  5.356E-14
2308.600  6.064E-14
2308.800  7.443E-14
2309.000  7.299E-14
2309.200  7.076E-14
2309.400  7.133E-14
2309.600  4.561E-14
2309.800  7.653E-14
2310.000  6.229E-14
2310.200  7.216E-14
2310.400  6.012E-14
2310.600  5.761E-14
2310.800  6.980E-14
2311.000  6.836E-14
2311.200  5.911E-14
2311.400  4.868E-14
2311.600  4.568E-14
2311.800  3.657E-14
2312.000  4.482E-14
2312.200  3.628E-14
2312.400  7.040E-14
2312.600  7.103E-14
2312.800  9.077E-14
2313.000  4.993E-14
2313.200  5.942E-14
2313.400  6.128E-14
2313.600  3.916E-14
2313.800  5.261E-14
2314.000  5.993E-14
2314.200  3.381E-14
2314.400  1.029E-13
2314.600  9.504E-14
2314.800  8.576E-14
2315.000  8.515E-14
2315.200  9.203E-14
2315.400  4.891E-14
2315.600  6.204E-14
2315.800  8.150E-14
2316.000  8.475E-14
2316.200  1.141E-13
2316.400  2.018E-13
2316.600  1.830E-13
2316.800  1.812E-13
2317.000  8.314E-14
2317.200  7.427E-14
2317.400  6.353E-14
2317.600  1.288E-13
2317.800  9.276E-14
2318.000  8.460E-14
2318.200  8.569E-14
2318.400  7.213E-14
2318.600  6.256E-14
2318.800  5.877E-14
2319.000  6.357E-14
2319.200  4.379E-14
2319.400  6.226E-14
2319.600  7.577E-14
2319.800  7.551E-14
2320.000  6.303E-14
2320.200  5.405E-14
2320.400  4.528E-14
2320.600  4.637E-14
2320.800  3.969E-14
2321.000  7.532E-14
2321.200  8.473E-14
2321.400  7.833E-14
2321.600  5.293E-14
2321.800  6.695E-14
2322.000  5.197E-14
2322.200  4.548E-14
2322.400  5.036E-14
2322.600  7.621E-14
2322.800  8.791E-14
2323.000  6.948E-14
2323.200  5.285E-14
2323.400  9.064E-14
2323.600  8.079E-14
2323.800  1.186E-13
2324.000  2.429E-13
2324.200  1.552E-13
2324.400  9.976E-14
2324.600  8.752E-14
2324.800  1.169E-13
2325.000  4.662E-13
2325.200  1.357E-12
2325.400  9.039E-13
2325.600  3.977E-13
2325.800  4.111E-12
2326.000  4.443E-12
2326.200  6.352E-13
2326.400  1.132E-13
2326.600  6.917E-14
2326.800  1.059E-13
2327.000  1.133E-13
2327.200  2.420E-13
2327.400  8.450E-13
2327.600  8.898E-13
2327.800  9.475E-13
2328.000  9.829E-13
2328.200  8.676E-13
2328.400  3.095E-13
2328.600  1.531E-12
2328.800  1.316E-12
2329.000  1.607E-13
2329.200  8.196E-14
2329.400  6.170E-14
2329.600  5.548E-14
2329.800  7.415E-14
2330.000  7.983E-14
2330.200  5.757E-14
2330.400  6.569E-14
2330.600  1.494E-13
2330.800  7.495E-13
2331.000  5.967E-13
2331.200  6.393E-14
2331.400  1.834E-13
2331.600  6.403E-13
2331.800  6.520E-13
2332.000  7.683E-13
2332.200  2.911E-13
2332.400  5.247E-14
2332.600  5.669E-14
2332.800  1.479E-13
2333.000  6.073E-13
2333.200  6.111E-13
2333.400  7.853E-13
2333.600  8.015E-13
2333.800  1.587E-13
2334.000  5.229E-14
2334.200  5.343E-14
2334.400  6.797E-14
2334.600  1.257E-13
2334.800  1.519E-12
2335.000  1.529E-12
2335.200  1.443E-12
2335.400  4.256E-13
2335.600  9.652E-14
2335.800  6.903E-14
2336.000  7.728E-14
2336.200  7.301E-14
2336.400  8.927E-14
2336.600  4.865E-14
2336.800  6.298E-14
2337.000  7.354E-14
2337.200  6.763E-14
2337.400  9.971E-14
2337.600  1.498E-13
2337.800  6.193E-14
2338.000  1.186E-13
2338.200  7.960E-13
2338.400  8.528E-13
2338.600  8.996E-13
2338.800  8.968E-13
2339.000  1.314E-13
2339.200  4.558E-14
2339.400  5.651E-14
2339.600  6.835E-14
2339.800  8.492E-14
2340.000  8.591E-14
2340.200  5.372E-14
2340.400  1.180E-13
2340.600  1.180E-13
2340.800  7.288E-14
2341.000  8.079E-14
2341.200  6.577E-14
2341.400  8.343E-14
2341.600  6.206E-14
2341.800  6.369E-14
2342.000  5.806E-14
2342.200  1.001E-13
2342.400  9.748E-14
2342.600  6.940E-14
2342.800  5.694E-14
2343.000  6.535E-14
2343.200  4.521E-14
2343.400  3.944E-14
2343.600  2.212E-13
2343.800  2.775E-13
2344.000  2.681E-13
2344.200  5.733E-13
2344.400  6.253E-13
2344.600  7.006E-13
2344.800  8.480E-13
2345.000  9.546E-13
2345.200  3.141E-13
2345.400  7.670E-14
2345.600  6.178E-14
2345.800  1.096E-13
2346.000  1.466E-13
2346.200  8.579E-14
2346.400  5.467E-14
2346.600  4.298E-14
2346.800  5.088E-14
2347.000  6.859E-14
2347.200  5.196E-14
2347.400  5.533E-14
2347.600  4.884E-14
2347.800  5.185E-14
2348.000  7.827E-14
2348.200  3.282E-13
2348.400  7.346E-13
2348.600  6.458E-13
2348.800  6.443E-13
2349.000  8.165E-13
2349.200  4.700E-13
2349.400  6.037E-14
2349.600  5.878E-14
2349.800  4.672E-14
2350.000  6.026E-14
2350.200  4.902E-14
2350.400  1.478E-13
2350.600  1.258E-12
2350.800  1.160E-12
2351.000  7.059E-14
2351.200  5.492E-14
2351.400  5.352E-14
2351.600  9.120E-14
2351.800  5.603E-14
2352.000  6.724E-14
2352.200  5.996E-14
2352.400  5.538E-14
2352.600  7.097E-14
2352.800  5.828E-14
2353.000  8.145E-14
2353.200  9.038E-14
2353.400  6.608E-14
2353.600  7.814E-14
2353.800  1.323E-13
2354.000  1.440E-13
2354.200  4.999E-14
2354.400  7.697E-14
2354.600  7.158E-14
2354.800  9.561E-14
2355.000  1.416E-13
2355.200  5.880E-13
2355.400  5.962E-13
2355.600  6.034E-13
2355.800  1.112E-13
2356.000  4.698E-14
2356.200  6.104E-14
2356.400  1.139E-13
2356.600  7.103E-14
2356.800  7.577E-14
2357.000  6.075E-14
2357.200  6.827E-14
2357.400  6.681E-14
2357.600  5.176E-14
2357.800  6.624E-14
2358.000  7.238E-14
2358.200  7.353E-14
2358.400  4.474E-14
2358.600  6.263E-14
2358.800  5.750E-14
2359.000  7.065E-14
2359.200  3.376E-13
2359.400  7.843E-13
2359.600  7.524E-13
2359.800  8.726E-13
2360.000  3.813E-13
2360.200  1.143E-12
2360.400  1.287E-12
2360.600  9.338E-13
2360.800  6.682E-13
2361.000  6.630E-13
2361.200  2.883E-13
2361.400  5.196E-14
2361.600  6.383E-14
2361.800  6.447E-14
2362.000  6.455E-14
2362.200  3.702E-13
2362.400  8.316E-13
2362.600  9.002E-13
2362.800  7.794E-13
2363.000  8.893E-14
2363.200  7.508E-14
2363.400  8.098E-14
2363.600  8.184E-14
2363.800  7.188E-14
2364.000  6.206E-14
2364.200  1.113E-13
2364.400  1.312E-13
2364.600  7.385E-14
2364.800  7.672E-14
2365.000  3.707E-13
2365.200  4.126E-13
2365.400  4.781E-13
2365.600  4.943E-13
2365.800  1.523E-13
2366.000  7.030E-14
2366.200  6.646E-14
2366.400  6.411E-14
2366.600  8.929E-14
2366.800  4.661E-13
2367.000  8.181E-13
2367.200  8.791E-13
2367.400  5.534E-13
2367.600  1.087E-13
2367.800  2.892E-13
2368.000  2.937E-13
2368.200  6.496E-14
2368.400  7.747E-14
2368.600  9.390E-14
2368.800  4.673E-13
2369.000  5.964E-13
2369.200  6.906E-13
2369.400  6.468E-13
2369.600  8.943E-14
2369.800  8.609E-14
2370.000  5.268E-14
2370.200  7.029E-14
2370.400  7.276E-14
2370.600  1.182E-13
2370.800  6.358E-13
2371.000  6.494E-13
2371.200  6.666E-13
2371.400  1.395E-13
2371.600  8.194E-14
2371.800  8.421E-14
2372.000  5.515E-14
2372.200  5.883E-14
2372.400  6.537E-14
2372.600  6.710E-14
2372.800  7.320E-14
2373.000  7.147E-14
2373.200  4.973E-14
2373.400  4.629E-14
2373.600  4.485E-14
2373.800  1.064E-13
2374.000  2.277E-13
2374.200  2.345E-13
2374.400  2.793E-13
2374.600  2.264E-13
2374.800  5.814E-14
2375.000  5.625E-14
2375.200  8.893E-14
2375.400  4.848E-13
2375.600  6.833E-13
2375.800  7.051E-13
2376.000  5.133E-13
2376.200  9.448E-14
2376.400  7.535E-14
2376.600  7.063E-14
2376.800  7.505E-14
2377.000  8.247E-14
2377.200  9.517E-14
2377.400  8.501E-14
2377.600  1.079E-13
2377.800  7.717E-14
2378.000  7.800E-14
2378.200  1.085E-13
2378.400  6.299E-14
2378.600  8.215E-14
2378.800  7.344E-14
2379.000  7.838E-14
2379.200  7.775E-14
2379.400  3.739E-13
2379.600  1.148E-12
2379.800  1.188E-12
2380.000  1.243E-12
2380.200  2.573E-13
2380.400  6.991E-14
2380.600  6.199E-14
2380.800  1.162E-13
2381.000  5.126E-13
2381.200  5.151E-13
2381.400  5.877E-13
2381.600  4.651E-13
2381.800  8.517E-14
2382.000  1.136E-13
2382.200  2.620E-13
2382.400  2.669E-13
2382.600  3.206E-13
2382.800  9.855E-13
2383.000  1.042E-12
2383.200  2.368E-13
2383.400  3.949E-13
2383.600  4.900E-13
2383.800  6.506E-13
2384.000  6.519E-13
2384.200  1.817E-13
2384.400  7.777E-14
2384.600  5.079E-13
2384.800  7.045E-13
2385.000  7.337E-13
2385.200  5.447E-13
2385.400  1.112E-12
2385.600  1.146E-12
2385.800  5.100E-13
2386.000  8.793E-14
2386.200  6.971E-14
2386.400  8.057E-14
2386.600  9.484E-14
2386.800  9.259E-14
2387.000  5.209E-14
2387.200  5.976E-14
2387.400  7.249E-14
2387.600  6.745E-14
2387.800  6.508E-14
2388.000  6.747E-14
2388.200  7.415E-14
2388.400  6.992E-14
2388.600  1.178E-13
2388.800  1.787E-13
2389.000  1.872E-13
2389.200  2.255E-13
2389.400  2.278E-13
2389.600  1.774E-13
2389.800  5.543E-14
2390.000  5.529E-14
2390.200  6.070E-14
2390.400  7.223E-14
2390.600  7.629E-14
2390.800  1.097E-13
2391.000  6.988E-14
2391.200  7.599E-14
2391.400  8.069E-14
2391.600  2.665E-13
2391.800  2.164E-12
2392.000  2.325E-12
2392.200  2.172E-12
2392.400  1.994E-13
2392.600  8.260E-14
2392.800  8.016E-14
2393.000  7.846E-14
2393.200  7.180E-14
2393.400  8.508E-14
2393.600  5.697E-14
2393.800  6.477E-14
2394.000  6.714E-14
2394.200  5.888E-14
2394.400  7.493E-14
2394.600  5.189E-14
2394.800  7.895E-14
2395.000  7.363E-14
2395.200  9.732E-14
2395.400  1.737E-13
2395.600  1.348E-13
2395.800  1.443E-13
2396.000  1.331E-13
2396.200  2.488E-13
2396.400  2.857E-13
2396.600  1.548E-13
2396.800  6.075E-14
2397.000  7.059E-14
2397.200  8.218E-14
2397.400  8.020E-14
2397.600  6.455E-14
2397.800  8.160E-14
2398.000  6.927E-14
2398.200  7.888E-14
2398.400  7.907E-14
2398.600  7.646E-14
2398.800  7.050E-14
2399.000  6.579E-14
2399.200  7.098E-14
2399.400  2.308E-13
2399.600  2.736E-13
2399.800  3.279E-13
2400.000  3.492E-13
2400.200  2.049E-13
2400.400  9.548E-14
2400.600  1.255E-13
2400.800  1.255E-13
2401.000  1.059E-13
2401.200  7.719E-14
2401.400  8.075E-14
2401.600  6.487E-14
2401.800  1.058E-13
2402.000  1.118E-13
2402.200  8.563E-14
2402.400  7.261E-14
2402.600  8.946E-14
2402.800  4.777E-13
2403.000  1.629E-12
2403.200  1.681E-12
2403.400  8.247E-13
2403.600  1.255E-13
2403.800  7.785E-14
2404.000  8.083E-14
2404.200  7.648E-14
2404.400  7.385E-14
2404.600  1.150E-13
2404.800  1.615E-13
2405.000  1.347E-13
2405.200  1.484E-13
2405.400  1.832E-13
2405.600  2.629E-13
2405.800  2.453E-13
2406.000  1.408E-13
2406.200  6.343E-14
2406.400  6.325E-14
2406.600  7.040E-14
2406.800  1.352E-13
2407.000  1.763E-13
2407.200  1.842E-13
2407.400  2.189E-13
2407.600  1.417E-13
2407.800  1.604E-13
2408.000  8.545E-14
2408.200  8.141E-14
2408.400  1.497E-13
2408.600  1.072E-13
2408.800  8.351E-14
2409.000  9.697E-14
2409.200  9.463E-14
2409.400  6.727E-14
2409.600  9.395E-14
2409.800  9.282E-14
2410.000  1.457E-13
2410.200  1.275E-13
2410.400  6.446E-14
2410.600  1.613E-13
2410.800  2.275E-13
2411.000  2.459E-13
2411.200  3.000E-13
2411.400  2.453E-13
2411.600  1.601E-13
2411.800  1.779E-13
2412.000  1.279E-13
2412.200  8.993E-14
2412.400  7.919E-14
2412.600  7.615E-14
2412.800  9.818E-14
2413.000  8.442E-14
2413.200  7.047E-14
2413.400  1.175E-13
2413.600  2.169E-13
2413.800  1.971E-13
2414.000  2.361E-13
2414.200  1.740E-13
2414.400  1.810E-13
2414.600  2.392E-13
2414.800  1.211E-13
2415.000  8.227E-14
2415.200  1.053E-13
2415.400  1.240E-13
2415.600  1.619E-13
2415.800  8.901E-14
2416.000  1.078E-13
2416.200  9.412E-14
2416.400  3.669E-13
2416.600  7.932E-13
2416.800  7.770E-13
2417.000  1.369E-13
2417.200  8.133E-14
2417.400  7.974E-14
2417.600  7.393E-14
2417.800  8.651E-14
2418.000  1.101E-13
2418.200  1.270E-13
2418.400  1.524E-13
2418.600  1.143E-13
2418.800  8.401E-14
2419.000  9.061E-14
2419.200  1.220E-13
2419.400  7.879E-14
2419.600  7.567E-14
2419.800  8.454E-14
2420.000  9.109E-14
2420.200  1.036E-13
2420.400  1.105E-13
2420.600  8.067E-14
2420.800  9.168E-14
2421.000  7.061E-14
2421.200  7.957E-14
2421.400  1.038E-13
2421.600  9.004E-14
2421.800  8.793E-14
2422.000  1.086E-13
2422.200  8.514E-14
2422.400  1.090E-13
2422.600  1.177E-13
2422.800  8.687E-14
2423.000  9.075E-14
2423.200  1.005E-13
2423.400  8.822E-14
2423.600  8.010E-14
2423.800  1.092E-13
2424.000  9.347E-14
2424.200  6.493E-14
2424.400  8.296E-14
2424.600  1.054E-13
2424.800  1.030E-13
2425.000  9.445E-14
2425.200  7.860E-14
2425.400  5.907E-14
2425.600  8.381E-14
2425.800  8.349E-14
2426.000  1.029E-13
2426.200  9.122E-14
2426.400  1.067E-13
2426.600  9.850E-14
2426.800  9.630E-14
2427.000  9.304E-14
2427.200  1.236E-13
2427.400  1.129E-13
2427.600  1.549E-13
2427.800  1.483E-13
2428.000  1.125E-13
2428.200  1.334E-13
2428.400  1.326E-13
2428.600  1.096E-13
2428.800  1.316E-13
2429.000  1.014E-13
2429.200  1.002E-13
2429.400  1.443E-13
2429.600  1.376E-13
2429.800  1.642E-13
2430.000  2.812E-13
2430.200  2.240E-13
2430.400  1.474E-13
2430.600  1.341E-13
2430.800  1.721E-13
2431.000  2.159E-13
2431.200  1.635E-13
2431.400  1.512E-13
2431.600  1.248E-13
2431.800  1.077E-13
2432.000  1.214E-13
2432.200  1.235E-13
2432.400  1.255E-13
2432.600  1.582E-13
2432.800  1.495E-13
2433.000  9.357E-14
2433.200  9.067E-14
2433.400  7.297E-14
2433.600  8.109E-14
2433.800  1.394E-13
2434.000  1.834E-13
2434.200  1.239E-13
2434.400  1.233E-13
2434.600  1.035E-13
2434.800  1.383E-13
2435.000  1.435E-13
2435.200  2.425E-13
2435.400  1.196E-12
2435.600  1.177E-12
2435.800  3.334E-13
2436.000  1.264E-13
2436.200  1.076E-13
2436.400  7.662E-14
2436.600  8.338E-14
2436.800  8.992E-14
2437.000  8.323E-14
2437.200  7.178E-14
2437.400  1.221E-13
2437.600  1.129E-13
2437.800  1.025E-13
2438.000  1.114E-13
2438.200  1.027E-13
2438.400  8.278E-14
2438.600  8.546E-14
2438.800  1.061E-13
2439.000  1.899E-13
2439.200  1.623E-13
2439.400  8.898E-14
2439.600  1.567E-13
2439.800  2.237E-13
2440.000  1.735E-13
2440.200  7.384E-14
2440.400  9.822E-14
2440.600  1.009E-13
2440.800  1.039E-13
2441.000  1.015E-13
2441.200  1.094E-13
2441.400  9.985E-14
2441.600  8.703E-14
2441.800  1.339E-13
2442.000  1.242E-13
2442.200  8.880E-14
2442.400  1.056E-13
2442.600  1.082E-13
2442.800  1.372E-13
2443.000  1.125E-13
2443.200  9.134E-14
2443.400  1.176E-13
2443.600  1.415E-13
2443.800  1.360E-13
2444.000  7.816E-14
2444.200  1.046E-13
2444.400  9.580E-14
2444.600  1.013E-13
2444.800  2.014E-13
2445.000  2.521E-13
2445.200  1.927E-13
2445.400  1.161E-13
2445.600  1.121E-13
2445.800  1.306E-13
2446.000  2.097E-13
2446.200  1.964E-13
2446.400  1.197E-13
2446.600  1.028E-13
2446.800  1.543E-13
2447.000  1.646E-13
2447.200  1.399E-13
2447.400  1.471E-13
2447.600  1.252E-13
2447.800  1.089E-13
2448.000  1.014E-13
2448.200  8.530E-14
2448.400  1.154E-13
2448.600  3.399E-13
2448.800  2.705E-13
2449.000  1.120E-13
2449.200  1.227E-13
2449.400  1.247E-13
2449.600  1.261E-13
2449.800  1.076E-13
2450.000  4.404E-13
2450.200  1.548E-12
2450.400  1.357E-12
2450.600  1.002E-13
2450.800  9.851E-14
2451.000  9.431E-14
2451.200  1.337E-13
2451.400  5.082E-13
2451.600  1.103E-12
2451.800  1.050E-12
2452.000  2.069E-13
2452.200  1.247E-13
2452.400  1.298E-13
2452.600  1.131E-13
2452.800  1.059E-13
2453.000  1.099E-13
2453.200  1.442E-13
2453.400  1.282E-13
2453.600  1.211E-13
2453.800  1.257E-13
2454.000  9.100E-14
2454.200  1.796E-13
2454.400  1.785E-13
2454.600  1.386E-13
2454.800  1.282E-13
2455.000  1.190E-13
2455.200  1.095E-13
2455.400  1.312E-13
2455.600  1.416E-13
2455.800  1.303E-13
2456.000  1.329E-13
2456.200  1.295E-13
2456.400  1.238E-13
2456.600  3.410E-13
2456.800  3.045E-13
2457.000  1.322E-13
2457.200  1.071E-13
2457.400  2.643E-13
2457.600  2.678E-13
2457.800  1.461E-13
2458.000  1.040E-13
2458.200  9.615E-14
2458.400  1.214E-13
2458.600  1.309E-13
2458.800  1.260E-13
2459.000  1.162E-13
2459.200  1.001E-13
2459.400  1.234E-13
2459.600  1.707E-13
2459.800  1.495E-13
2460.000  1.271E-13
2460.200  1.334E-13
2460.400  1.182E-13
2460.600  1.233E-13
2460.800  1.132E-13
2461.000  1.104E-13
2461.200  1.006E-13
2461.400  1.154E-13
2461.600  1.097E-13
2461.800  9.406E-14
2462.000  1.577E-13
2462.200  1.692E-13
2462.400  1.345E-13
2462.600  9.653E-14
2462.800  1.422E-13
2463.000  1.278E-13
2463.200  1.107E-13
2463.400  1.226E-13
2463.600  1.363E-13
2463.800  1.224E-13
2464.000  1.132E-13
2464.200  1.164E-13
2464.400  1.190E-13
2464.600  1.014E-13
2464.800  9.675E-14
2465.000  1.099E-13
2465.200  1.200E-13
2465.400  1.306E-13
2465.600  1.563E-13
2465.800  1.568E-13
2466.000  1.453E-13
2466.200  1.880E-13
2466.400  3.048E-13
2466.600  2.366E-13
2466.800  1.099E-13
2467.000  1.270E-13
2467.200  2.285E-13
2467.400  2.706E-13
2467.600  1.173E-13
2467.800  1.543E-13
2468.000  1.560E-13
2468.200  1.063E-13
2468.400  3.036E-13
2468.600  3.061E-13
2468.800  2.946E-13
2469.000  1.661E-13
2469.200  1.415E-13
2469.400  1.257E-13
2469.600  1.154E-13
2469.800  1.365E-13
2470.000  1.515E-13
2470.200  1.044E-13
2470.400  1.150E-13
2470.600  2.315E-13
2470.800  2.666E-13
2471.000  2.938E-13
2471.200  2.458E-13
2471.400  1.497E-13
2471.600  1.229E-13
2471.800  1.276E-13
2472.000  1.396E-13
2472.200  1.383E-13
2472.400  1.298E-13
2472.600  1.192E-13
2472.800  2.015E-13
2473.000  2.435E-13
2473.200  1.654E-13
2473.400  1.486E-13
2473.600  1.436E-13
2473.800  1.670E-13
2474.000  1.505E-13
2474.200  1.760E-13
2474.400  2.564E-13
2474.600  2.370E-13
2474.800  5.260E-13
2475.000  8.618E-13
2475.200  2.938E-13
2475.400  1.078E-13
2475.600  1.220E-13
2475.800  1.755E-13
2476.000  1.661E-13
2476.200  1.332E-13
2476.400  1.277E-13
2476.600  1.770E-13
2476.800  2.151E-13
2477.000  4.249E-13
2477.200  5.422E-13
2477.400  4.402E-13
2477.600  1.448E-13
2477.800  1.051E-13
2478.000  1.613E-13
2478.200  1.611E-13
2478.400  1.597E-13
2478.600  1.385E-13
2478.800  1.405E-13
2479.000  3.993E-13
2479.200  3.835E-13
2479.400  1.212E-13
2479.600  1.433E-13
2479.800  1.070E-13
2480.000  1.003E-13
2480.200  7.273E-14
2480.400  9.705E-14
2480.600  1.430E-13
2480.800  1.376E-13
2481.000  3.185E-13
2481.200  3.054E-13
2481.400  1.507E-13
2481.600  1.177E-13
2481.800  1.644E-13
2482.000  1.556E-13
2482.200  1.741E-13
2482.400  2.753E-13
2482.600  4.342E-13
2482.800  4.290E-13
2483.000  1.515E-13
2483.200  1.371E-13
2483.400  1.104E-13
2483.600  1.019E-13
2483.800  4.467E-14
2484.000  1.059E-13
2484.200  1.542E-13
2484.400  2.211E-13
2484.600  4.476E-13
2484.800  4.273E-13
2485.000  2.732E-13
2485.200  1.535E-13
2485.400  3.657E-13
2485.600  8.159E-13
2485.800  4.857E-13
2486.000  1.362E-13
2486.200  1.415E-13
2486.400  1.619E-13
2486.600  1.224E-13
2486.800  1.331E-13
2487.000  1.132E-13
2487.200  1.344E-13
2487.400  2.118E-13
2487.600  2.223E-13
2487.800  1.526E-13
2488.000  1.595E-13
2488.200  1.587E-13
2488.400  1.558E-13
2488.600  9.092E-14
2488.800  9.280E-14
2489.000  1.237E-13
2489.200  1.233E-13
2489.400  1.248E-13
2489.600  1.526E-13
2489.800  1.838E-13
2490.000  1.367E-13
2490.200  2.617E-13
2490.400  2.406E-13
2490.600  1.413E-13
2490.800  1.087E-13
2491.000  1.231E-13
2491.200  1.295E-13
2491.400  1.362E-13
2491.600  1.262E-13
2491.800  1.383E-13
2492.000  1.378E-13
2492.200  1.666E-13
2492.400  1.557E-13
2492.600  1.098E-13
2492.800  1.066E-13
2493.000  8.976E-14
2493.200  1.086E-13
2493.400  2.519E-13
2493.600  3.561E-13
2493.800  4.683E-13
2494.000  4.773E-13
2494.200  1.612E-13
2494.400  1.243E-13
2494.600  1.033E-13
2494.800  1.076E-13
2495.000  1.358E-13
2495.200  1.481E-13
2495.400  1.926E-13
2495.600  2.072E-13
2495.800  1.364E-13
2496.000  1.406E-13
2496.200  1.319E-13
2496.400  1.202E-13
2496.600  1.344E-13
2496.800  1.559E-13
2497.000  1.412E-13
2497.200  1.399E-13
2497.400  1.767E-13
2497.600  1.614E-13
2497.800  1.819E-13
2498.000  1.614E-13
2498.200  3.975E-13
2498.400  4.580E-13
2498.600  1.738E-13
2498.800  1.276E-13
2499.000  1.384E-13
2499.200  1.354E-13
2499.400  1.232E-13
2499.600  1.554E-13
2499.800  1.488E-13
2500.000  1.591E-13
2500.200  1.722E-13
2500.400  1.823E-13
2500.600  2.004E-13
2500.800  1.490E-13
2501.000  1.478E-13
2501.200  1.278E-13
2501.400  1.300E-13
2501.600  7.267E-14
2501.800  1.034E-13
2502.000  1.511E-13
2502.200  1.267E-13
2502.400  1.707E-13
2502.600  1.507E-13
2502.800  1.688E-13
2503.000  1.518E-13
2503.200  1.475E-13
2503.400  3.119E-13
2503.600  2.526E-13
2503.800  2.427E-13
2504.000  1.631E-13
2504.200  1.259E-13
2504.400  1.268E-13
2504.600  1.273E-13
2504.800  1.369E-13
2505.000  1.394E-13
2505.200  2.210E-13
2505.400  2.249E-13
2505.600  7.554E-13
2505.800  8.011E-13
2506.000  3.486E-13
2506.200  1.275E-13
2506.400  1.318E-13
2506.600  1.251E-13
2506.800  1.377E-13
2507.000  1.496E-13
2507.200  2.849E-13
2507.400  3.503E-13
2507.600  1.894E-13
2507.800  1.228E-13
2508.000  1.228E-13
2508.200  1.529E-13
2508.400  1.221E-13
2508.600  2.065E-13
2508.800  2.409E-13
2509.000  2.311E-13
2509.200  1.644E-13
2509.400  1.431E-13
2509.600  1.370E-13
2509.800  1.188E-13
2510.000  2.003E-13
2510.200  1.664E-13
2510.400  1.577E-13
2510.600  1.737E-13
2510.800  1.679E-13
2511.000  2.289E-13
2511.200  1.849E-13
2511.400  5.143E-14
2511.600  1.595E-13
2511.800  6.050E-13
2512.000  5.965E-13
2512.200  1.542E-13
2512.400  1.199E-13
2512.600  1.535E-13
2512.800  1.220E-13
2513.000  1.590E-13
2513.200  1.514E-13
2513.400  1.344E-13
2513.600  1.712E-13
2513.800  1.456E-13
2514.000  1.295E-13
2514.200  1.598E-13
2514.400  1.367E-13
2514.600  1.593E-13
2514.800  1.215E-13
2515.000  1.142E-13
2515.200  1.301E-13
2515.400  1.636E-13
2515.600  1.324E-13
2515.800  1.308E-13
2516.000  1.222E-13
2516.200  1.011E-13
2516.400  1.580E-13
2516.600  2.306E-13
2516.800  2.050E-13
2517.000  1.112E-13
2517.200  1.031E-13
2517.400  1.285E-13
2517.600  1.883E-13
2517.800  1.587E-13
2518.000  1.229E-13
2518.200  1.000E-13
2518.400  1.116E-13
2518.600  8.596E-14
2518.800  1.245E-13
2519.000  1.218E-13
2519.200  1.348E-13
2519.400  1.584E-13
2519.600  1.663E-13
2519.800  1.524E-13
2520.000  1.652E-13
2520.200  1.105E-13
2520.400  1.049E-13
2520.600  1.554E-13
2520.800  1.549E-13
2521.000  1.756E-13
2521.200  1.482E-13
2521.400  1.482E-13
2521.600  1.216E-13
2521.800  1.130E-13
2522.000  1.407E-13
2522.200  1.395E-13
2522.400  1.307E-13
2522.600  1.361E-13
2522.800  1.085E-13
2523.000  9.152E-14
2523.200  8.055E-14
2523.400  4.970E-14
2523.600  1.067E-13
2523.800  9.976E-14
2524.000  1.958E-13
2524.200  1.798E-13
2524.400  1.192E-13
2524.600  1.408E-13
2524.800  1.028E-13
2525.000  1.314E-13
2525.200  1.358E-13
2525.400  1.586E-13
2525.600  1.377E-13
2525.800  1.811E-13
2526.000  1.504E-13
2526.200  1.363E-13
2526.400  1.787E-13
2526.600  2.003E-13
2526.800  1.919E-13
2527.000  1.756E-13
2527.200  4.240E-13
2527.400  4.645E-13
2527.600  2.273E-13
2527.800  1.237E-13
2528.000  7.169E-14
2528.200  1.132E-13
2528.400  1.302E-13
2528.600  1.314E-13
2528.800  1.297E-13
2529.000  1.337E-13
2529.200  1.356E-13
2529.400  1.252E-13
2529.600  8.572E-14
2529.800  1.327E-13
2530.000  1.936E-13
2530.200  1.819E-13
2530.400  1.539E-13
2530.600  3.449E-13
2530.800  2.923E-13
2531.000  1.841E-13
2531.200  1.516E-13
2531.400  2.963E-13
2531.600  6.105E-13
2531.800  3.491E-13
2532.000  1.768E-13
2532.200  1.814E-13
2532.400  1.899E-13
2532.600  1.568E-13
2532.800  1.781E-13
2533.000  1.512E-13
2533.200  1.858E-13
2533.400  1.660E-13
2533.600  1.701E-13
2533.800  1.838E-13
2534.000  1.833E-13
2534.200  1.130E-13
2534.400  1.466E-13
2534.600  1.865E-13
2534.800  2.639E-13
2535.000  2.353E-13
2535.200  2.216E-13
2535.400  2.555E-13
2535.600  2.044E-13
2535.800  1.692E-13
2536.000  1.620E-13
2536.200  1.565E-13
2536.400  1.770E-13
2536.600  1.479E-13
2536.800  1.821E-13
2537.000  1.848E-13
2537.200  1.990E-13
2537.400  1.589E-13
2537.600  1.615E-13
2537.800  3.584E-13
2538.000  3.355E-13
2538.200  2.186E-13
2538.400  1.808E-13
2538.600  1.682E-13
2538.800  1.709E-13
2539.000  2.132E-13
2539.200  4.224E-13
2539.400  3.985E-13
2539.600  2.188E-13
2539.800  2.169E-13
2540.000  1.562E-13
2540.200  2.021E-13
2540.400  1.875E-13
2540.600  1.865E-13
2540.800  1.918E-13
2541.000  1.903E-13
2541.200  1.628E-13
2541.400  1.317E-13
2541.600  1.212E-13
2541.800  1.463E-13
2542.000  2.037E-13
2542.200  2.072E-13
2542.400  1.763E-13
2542.600  1.530E-13
2542.800  3.120E-13
2543.000  2.575E-13
2543.200  2.396E-13
2543.400  1.674E-13
2543.600  1.981E-13
2543.800  2.045E-13
2544.000  1.564E-13
2544.200  1.965E-13
2544.400  1.970E-13
2544.600  1.952E-13
2544.800  1.656E-13
2545.000  1.631E-13
2545.200  1.601E-13
2545.400  1.926E-13
2545.600  1.972E-13
2545.800  1.826E-13
2546.000  1.731E-13
2546.200  1.582E-13
2546.400  1.364E-13
2546.600  9.544E-14
2546.800  1.682E-13
2547.000  1.977E-13
2547.200  1.878E-13
2547.400  1.761E-13
2547.600  2.427E-13
2547.800  2.793E-13
2548.000  2.577E-13
2548.200  2.125E-13
2548.400  2.329E-13
2548.600  1.756E-13
2548.800  1.873E-13
2549.000  6.445E-13
2549.200  6.502E-13
2549.400  2.544E-13
2549.600  3.047E-13
2549.800  2.269E-13
2550.000  1.444E-13
2550.200  1.532E-13
2550.400  2.505E-13
2550.600  1.633E-13
2550.800  2.052E-13
2551.000  2.044E-13
2551.200  2.021E-13
2551.400  2.056E-13
2551.600  2.083E-13
2551.800  2.060E-13
2552.000  2.500E-13
2552.200  2.628E-13
2552.400  2.628E-13
2552.600  2.707E-13
2552.800  2.815E-13
2553.000  1.568E-13
2553.200  1.337E-13
2553.400  1.460E-13
2553.600  2.028E-13
2553.800  2.017E-13
2554.000  2.224E-13
2554.200  2.404E-13
2554.400  2.556E-13
2554.600  2.521E-13
2554.800  2.749E-13
2555.000  2.789E-13
2555.200  2.686E-13
2555.400  2.672E-13
2555.600  2.027E-13
2555.800  2.110E-13
2556.000  2.097E-13
2556.200  1.686E-13
2556.400  1.623E-13
2556.600  1.938E-13
2556.800  1.992E-13
2557.000  2.374E-13
2557.200  1.804E-13
2557.400  1.749E-13
2557.600  2.866E-13
2557.800  2.247E-13
2558.000  2.581E-13
2558.200  2.190E-13
2558.400  2.060E-13
2558.600  2.068E-13
2558.800  2.159E-13
2559.000  2.150E-13
2559.200  2.459E-13
2559.400  3.015E-13
2559.600  3.145E-13
2559.800  2.004E-13
2560.000  1.659E-13
2560.200  1.989E-13
2560.400  1.968E-13
2560.600  2.023E-13
2560.800  1.928E-13
2561.000  1.663E-13
2561.200  2.273E-13
2561.400  2.646E-13
2561.600  2.368E-13
2561.800  1.930E-13
2562.000  1.788E-13
2562.200  1.843E-13
2562.400  1.943E-13
2562.600  2.058E-13
2562.800  3.944E-13
2563.000  3.608E-13
2563.200  4.706E-13
2563.400  4.499E-13
2563.600  2.381E-13
2563.800  3.050E-13
2564.000  2.870E-13
2564.200  3.303E-13
2564.400  3.114E-13
2564.600  2.409E-13
2564.800  2.227E-13
2565.000  2.439E-13
2565.200  2.526E-13
2565.400  2.349E-13
2565.600  2.166E-13
2565.800  1.994E-13
2566.000  2.080E-13
2566.200  2.269E-13
2566.400  2.526E-13
2566.600  2.634E-13
2566.800  2.792E-13
2567.000  2.371E-13
2567.200  3.709E-13
2567.400  3.799E-13
2567.600  3.847E-13
2567.800  2.651E-13
2568.000  2.420E-13
2568.200  2.532E-13
2568.400  2.434E-13
2568.600  2.021E-13
2568.800  2.441E-13
2569.000  2.291E-13
2569.200  2.083E-13
2569.400  2.143E-13
2569.600  2.106E-13
2569.800  2.146E-13
2570.000  2.411E-13
2570.200  2.339E-13
2570.400  2.770E-13
2570.600  2.901E-13
2570.800  3.399E-13
2571.000  2.641E-13
2571.200  2.278E-13
2571.400  2.269E-13
2571.600  1.903E-13
2571.800  2.438E-13
2572.000  1.483E-13
2572.200  2.542E-13
2572.400  2.407E-13
2572.600  2.812E-13
2572.800  2.309E-13
2573.000  2.994E-13
2573.200  1.744E-13
2573.400  2.266E-13
2573.600  2.648E-13
2573.800  2.399E-13
2574.000  2.513E-13
2574.200  2.120E-13
2574.400  2.555E-13
2574.600  2.670E-13
2574.800  2.737E-13
2575.000  2.221E-13
2575.200  2.484E-13
2575.400  2.311E-13
2575.600  1.700E-13
2575.800  2.212E-13
2576.000  1.769E-13
2576.200  1.734E-13
2576.400  2.041E-13
2576.600  1.458E-13
2576.800  1.983E-13
2577.000  2.035E-13
2577.200  2.357E-13
2577.400  1.938E-13
2577.600  2.348E-13
2577.800  2.470E-13
2578.000  2.480E-13
2578.200  3.917E-13
2578.400  4.004E-13
2578.600  3.835E-13
2578.800  3.135E-13
2579.000  2.225E-13
2579.200  2.496E-13
2579.400  2.427E-13
2579.600  2.737E-13
2579.800  2.107E-13
2580.000  2.429E-13
2580.200  2.675E-13
2580.400  4.344E-13
2580.600  3.206E-13
2580.800  2.332E-13
2581.000  2.078E-13
2581.200  2.349E-13
2581.400  2.349E-13
2581.600  2.144E-13
2581.800  2.774E-13
2582.000  2.741E-13
2582.200  2.545E-13
2582.400  2.405E-13
2582.600  2.307E-13
2582.800  3.330E-13
2583.000  3.755E-13
2583.200  3.672E-13
2583.400  3.587E-13
2583.600  2.252E-13
2583.800  2.075E-13
2584.000  2.533E-13
2584.200  2.450E-13
2584.400  2.281E-13
2584.600  2.080E-13
2584.800  1.833E-13
2585.000  1.835E-13
2585.200  1.887E-13
2585.400  1.961E-13
2585.600  2.465E-13
2585.800  2.022E-13
2586.000  3.989E-13
2586.200  4.389E-13
2586.400  3.975E-13
2586.600  7.029E-13
2586.800  6.545E-13
2587.000  2.369E-13
2587.200  2.042E-13
2587.400  2.003E-13
2587.600  2.020E-13
2587.800  1.971E-13
2588.000  2.757E-13
2588.200  2.919E-13
2588.400  2.989E-13
2588.600  2.964E-13
2588.800  2.653E-13
2589.000  2.163E-13
2589.200  2.310E-13
2589.400  2.134E-13
2589.600  2.335E-13
2589.800  2.722E-13
2590.000  2.882E-13
2590.200  2.775E-13
2590.400  2.570E-13
2590.600  2.964E-13
2590.800  2.614E-13
2591.000  2.592E-13
2591.200  1.961E-13
2591.400  2.529E-13
2591.600  2.490E-13
2591.800  4.829E-13
2592.000  5.077E-13
2592.200  5.434E-13
2592.400  4.880E-13
2592.600  2.805E-13
2592.800  2.814E-13
2593.000  2.463E-13
2593.200  2.046E-13
2593.400  1.683E-13
2593.600  1.914E-13
2593.800  2.004E-13
2594.000  3.042E-13
2594.200  3.000E-13
2594.400  3.454E-13
2594.600  3.093E-13
2594.800  1.918E-13
2595.000  2.499E-13
2595.200  2.597E-13
2595.400  2.176E-13
2595.600  2.119E-13
2595.800  2.408E-13
2596.000  2.505E-13
2596.200  2.572E-13
2596.400  2.278E-13
2596.600  2.103E-13
2596.800  2.197E-13
2597.000  2.260E-13
2597.200  2.432E-13
2597.400  2.710E-13
2597.600  2.671E-13
2597.800  2.204E-13
2598.000  1.882E-13
2598.200  1.919E-13
2598.400  2.424E-13
2598.600  4.694E-13
2598.800  4.633E-13
2599.000  5.978E-13
2599.200  6.143E-13
2599.400  2.615E-13
2599.600  4.433E-13
2599.800  5.024E-13
2600.000  5.356E-13
2600.200  1.053E-12
2600.400  8.351E-13
2600.600  2.708E-13
2600.800  1.821E-13
2601.000  1.991E-13
2601.200  2.201E-13
2601.400  2.392E-13
2601.600  3.308E-13
2601.800  2.946E-13
2602.000  2.746E-13
2602.200  2.520E-13
2602.400  2.469E-13
2602.600  2.318E-13
2602.800  2.469E-13
2603.000  2.257E-13
2603.200  2.467E-13
2603.400  2.657E-13
2603.600  2.677E-13
2603.800  2.722E-13
2604.000  2.582E-13
2604.200  2.663E-13
2604.400  2.524E-13
2604.600  2.675E-13
2604.800  2.688E-13
2605.000  2.728E-13
2605.200  2.712E-13
2605.400  2.248E-13
2605.600  2.036E-13
2605.800  2.556E-13
2606.000  2.603E-13
2606.200  2.165E-13
2606.400  2.533E-13
2606.600  2.119E-13
2606.800  2.510E-13
2607.000  2.299E-13
2607.200  3.236E-13
2607.400  3.761E-13
2607.600  3.394E-13
2607.800  5.547E-13
2608.000  5.090E-13
2608.200  2.400E-13
2608.400  2.190E-13
2608.600  2.225E-13
2608.800  2.319E-13
2609.000  2.070E-13
2609.200  2.260E-13
2609.400  2.749E-13
2609.600  1.903E-13
2609.800  2.524E-13
2610.000  2.475E-13
2610.200  2.907E-13
2610.400  2.820E-13
2610.600  2.549E-13
2610.800  2.175E-13
2611.000  2.250E-13
2611.200  2.100E-13
2611.400  5.963E-13
2611.600  7.326E-13
2611.800  6.846E-13
2612.000  4.077E-13
2612.200  4.427E-13
2612.400  4.197E-13
2612.600  7.267E-13
2612.800  7.001E-13
2613.000  2.631E-13
2613.200  2.137E-13
2613.400  2.871E-13
2613.600  3.391E-13
2613.800  2.483E-13
2614.000  2.975E-13
2614.200  2.978E-13
2614.400  2.732E-13
2614.600  3.739E-13
2614.800  3.018E-13
2615.000  2.186E-13
2615.200  2.276E-13
2615.400  2.670E-13
2615.600  2.832E-13
2615.800  2.877E-13
2616.000  2.667E-13
2616.200  3.043E-13
2616.400  3.033E-13
2616.600  2.584E-13
2616.800  3.374E-13
2617.000  3.847E-13
2617.200  2.603E-13
2617.400  2.416E-13
2617.600  2.663E-13
2617.800  5.862E-13
2618.000  6.369E-13
2618.200  6.585E-13
2618.400  7.709E-13
2618.600  4.273E-13
2618.800  2.825E-13
2619.000  2.777E-13
2619.200  2.749E-13
2619.400  3.675E-13
2619.600  7.211E-13
2619.800  4.980E-13
2620.000  2.928E-13
2620.200  3.623E-13
2620.400  3.552E-13
2620.600  3.924E-13
2620.800  8.571E-13
2621.000  8.347E-13
2621.200  7.574E-13
2621.400  3.524E-13
2621.600  3.058E-13
2621.800  2.861E-13
2622.000  3.739E-13
2622.200  3.373E-13
2622.400  4.367E-13
2622.600  3.200E-13
2622.800  3.059E-13
2623.000  3.923E-13
2623.200  3.335E-13
2623.400  3.299E-13
2623.600  3.535E-13
2623.800  3.491E-13
2624.000  5.055E-13
2624.200  4.752E-13
2624.400  2.844E-13
2624.600  2.890E-13
2624.800  3.127E-13
2625.000  3.586E-13
2625.200  3.681E-13
2625.400  3.134E-13
2625.600  3.677E-13
2625.800  7.591E-13
2626.000  9.248E-13
2626.200  7.944E-13
2626.400  1.106E-12
2626.600  8.924E-13
2626.800  5.689E-13
2627.000  3.318E-13
2627.200  5.690E-13
2627.400  6.337E-13
2627.600  4.310E-13
2627.800  4.196E-13
2628.000  6.599E-13
2628.200  6.744E-13
2628.400  3.505E-13
2628.600  4.553E-13
2628.800  3.912E-13
2629.000  5.668E-13
2629.200  5.580E-13
2629.400  3.078E-13
2629.600  2.825E-13
2629.800  3.941E-13
2630.000  3.359E-13
2630.200  3.347E-13
2630.400  3.787E-13
2630.600  3.064E-13
2630.800  3.203E-13
2631.000  2.984E-13
2631.200  4.641E-13
2631.400  5.164E-13
2631.600  3.617E-13
2631.800  4.372E-13
2632.000  7.001E-13
2632.200  6.985E-13
2632.400  4.052E-13
2632.600  3.195E-13
2632.800  2.775E-13
2633.000  2.795E-13
2633.200  2.562E-13
2633.400  2.739E-13
2633.600  3.781E-13
2633.800  3.691E-13
2634.000  5.435E-13
2634.200  3.327E-13
2634.400  3.917E-13
2634.600  3.696E-13
2634.800  3.857E-13
2635.000  4.321E-13
2635.200  4.044E-13
2635.400  3.839E-13
2635.600  5.559E-13
2635.800  4.813E-13
2636.000  3.673E-13
2636.200  2.970E-13
2636.400  3.600E-13
2636.600  5.583E-13
2636.800  4.224E-13
2637.000  3.444E-13
2637.200  3.749E-13
2637.400  3.610E-13
2637.600  4.434E-13
2637.800  5.089E-13
2638.000  6.017E-13
2638.200  3.636E-13
2638.400  5.344E-13
2638.600  4.471E-13
2638.800  4.475E-13
2639.000  4.582E-13
2639.200  4.651E-13
2639.400  4.219E-13
2639.600  4.333E-13
2639.800  5.284E-13
2640.000  4.191E-13
2640.200  3.743E-13
2640.400  4.048E-13
2640.600  4.436E-13
2640.800  4.684E-13
2641.000  5.075E-13
2641.200  4.403E-13
2641.400  4.451E-13
2641.600  3.024E-13
2641.800  4.139E-13
2642.000  4.146E-13
2642.200  2.974E-13
2642.400  4.870E-13
2642.600  4.397E-13
2642.800  4.879E-13
2643.000  5.071E-13
2643.200  5.226E-13
2643.400  5.051E-13
2643.600  4.756E-13
2643.800  3.865E-13
2644.000  3.928E-13
2644.200  4.530E-13
2644.400  4.902E-13
2644.600  3.227E-13
2644.800  3.382E-13
2645.000  4.484E-13
2645.200  4.689E-13
2645.400  4.678E-13
2645.600  4.241E-13
2645.800  3.695E-13
2646.000  3.144E-13
2646.200  3.914E-13
2646.400  3.921E-13
2646.600  3.472E-13
2646.800  3.338E-13
2647.000  3.555E-13
2647.200  4.072E-13
2647.400  4.477E-13
2647.600  4.639E-13
2647.800  4.431E-13
2648.000  3.918E-13
2648.200  3.400E-13
2648.400  4.968E-13
2648.600  4.414E-13
2648.800  4.041E-13
2649.000  4.033E-13
2649.200  3.679E-13
2649.400  4.333E-13
2649.600  4.217E-13
2649.800  3.945E-13
2650.000  4.029E-13
2650.200  4.372E-13
2650.400  4.081E-13
2650.600  7.241E-13
2650.800  5.175E-13
2651.000  3.778E-13
2651.200  5.247E-13
2651.400  5.247E-13
2651.600  4.501E-13
2651.800  3.322E-13
2652.000  3.396E-13
2652.200  2.624E-13
2652.400  4.897E-13
2652.600  4.610E-13
2652.800  4.631E-13
2653.000  4.208E-13
2653.200  3.935E-13
2653.400  3.940E-13
2653.600  5.350E-13
2653.800  5.006E-13
2654.000  6.881E-13
2654.200  6.658E-13
2654.400  5.769E-13
2654.600  5.693E-13
2654.800  4.699E-13
2655.000  5.044E-13
2655.200  4.488E-13
2655.400  6.802E-13
2655.600  5.182E-13
2655.800  4.723E-13
2656.000  7.385E-13
2656.200  4.442E-13
2656.400  4.787E-13
2656.600  4.337E-13
2656.800  3.492E-13
2657.000  4.644E-13
2657.200  4.758E-13
2657.400  4.553E-13
2657.600  4.496E-13
2657.800  4.400E-13
2658.000  3.566E-13
2658.200  4.779E-13
2658.400  4.826E-13
2658.600  4.184E-13
2658.800  4.362E-13
2659.000  6.240E-13
2659.200  6.389E-13
2659.400  5.058E-13
2659.600  4.887E-13
2659.800  4.368E-13
2660.000  4.320E-13
2660.200  4.669E-13
2660.400  4.879E-13
2660.600  5.849E-13
2660.800  5.739E-13
2661.000  3.611E-13
2661.200  4.272E-13
2661.400  6.964E-13
2661.600  6.866E-13
2661.800  2.937E-13
2662.000  4.528E-13
2662.200  5.528E-13
2662.400  5.456E-13
2662.600  4.028E-13
2662.800  3.549E-13
2663.000  4.678E-13
2663.200  4.196E-13
2663.400  4.654E-13
2663.600  4.464E-13
2663.800  4.267E-13
2664.000  3.166E-13
2664.200  5.244E-13
2664.400  5.228E-13
2664.600  3.643E-13
2664.800  4.312E-13
2665.000  5.385E-13
2665.200  4.797E-13
2665.400  4.405E-13
2665.600  4.713E-13
2665.800  4.562E-13
2666.000  4.522E-13
2666.200  5.213E-13
2666.400  5.155E-13
2666.600  2.841E-13
2666.800  3.135E-13
2667.000  3.209E-13
2667.200  3.280E-13
2667.400  4.915E-13
2667.600  4.026E-13
2667.800  4.212E-13
2668.000  4.864E-13
2668.200  5.026E-13
2668.400  3.824E-13
2668.600  3.495E-13
2668.800  4.706E-13
2669.000  5.429E-13
2669.200  6.761E-13
2669.400  7.364E-13
2669.600  4.939E-12
2669.800  5.003E-12
2670.000  1.043E-12
2670.200  5.722E-13
2670.400  5.565E-13
2670.600  4.304E-13
2670.800  3.304E-13
2671.000  4.707E-13
2671.200  4.672E-13
2671.400  4.279E-13
2671.600  4.339E-13
2671.800  4.181E-13
2672.000  4.758E-13
2672.200  6.711E-13
2672.400  6.756E-13
2672.600  4.493E-13
2672.800  4.082E-13
2673.000  3.780E-13
2673.200  6.598E-13
2673.400  7.321E-13
2673.600  6.392E-13
2673.800  3.724E-13
2674.000  5.009E-13
2674.200  4.984E-13
2674.400  5.064E-13
2674.600  4.982E-13
2674.800  4.834E-13
2675.000  5.909E-13
2675.200  4.591E-13
2675.400  4.148E-13
2675.600  5.625E-13
2675.800  6.279E-13
2676.000  4.160E-13
2676.200  4.171E-13
2676.400  3.642E-13
2676.600  3.353E-13
2676.800  5.225E-13
2677.000  5.196E-13
2677.200  4.726E-13
2677.400  4.770E-13
2677.600  4.171E-13
2677.800  2.500E-13
2678.000  4.112E-13
2678.200  5.032E-13
2678.400  3.570E-13
2678.600  3.832E-13
2678.800  4.379E-13
2679.000  5.469E-13
2679.200  8.572E-13
2679.400  9.122E-13
2679.600  5.714E-13
2679.800  3.263E-13
2680.000  4.293E-13
2680.200  4.461E-13
2680.400  4.950E-13
2680.600  4.799E-13
2680.800  4.303E-13
2681.000  3.457E-13
2681.200  4.258E-13
2681.400  3.847E-13
2681.600  5.362E-13
2681.800  6.494E-13
2682.000  5.272E-13
2682.200  3.644E-13
2682.400  5.276E-13
2682.600  5.635E-13
2682.800  5.382E-13
2683.000  5.352E-13
2683.200  4.689E-13
2683.400  4.697E-13
2683.600  3.659E-13
2683.800  4.813E-13
2684.000  5.862E-13
2684.200  4.850E-13
2684.400  4.455E-13
2684.600  3.605E-13
2684.800  7.401E-13
2685.000  7.154E-13
2685.200  3.786E-13
2685.400  3.395E-13
2685.600  4.069E-13
2685.800  4.684E-13
2686.000  4.513E-13
2686.200  4.548E-13
2686.400  5.519E-13
2686.600  5.198E-13
2686.800  6.261E-13
2687.000  4.419E-13
2687.200  4.577E-13
2687.400  7.428E-13
2687.600  9.290E-13
2687.800  8.441E-13
2688.000  5.234E-13
2688.200  5.222E-13
2688.400  4.428E-13
2688.600  3.566E-13
2688.800  4.039E-13
2689.000  4.441E-13
2689.200  5.177E-13
2689.400  4.910E-13
2689.600  5.931E-13
2689.800  7.183E-13
2690.000  4.368E-13
2690.200  5.376E-13
2690.400  3.899E-13
2690.600  2.095E-13
2690.800  3.569E-13
2691.000  4.486E-13
2691.200  4.844E-13
2691.400  3.346E-13
2691.600  3.478E-13
2691.800  3.635E-13
2692.000  4.552E-13
2692.200  5.444E-13
2692.400  4.161E-13
2692.600  4.929E-13
2692.800  5.333E-13
2693.000  5.517E-13
2693.200  1.561E-12
2693.400  2.511E-12
2693.600  1.727E-12
2693.800  4.546E-13
2694.000  5.156E-13
2694.200  4.358E-13
2694.400  4.414E-13
2694.600  4.569E-13
2694.800  5.751E-13
2695.000  5.996E-13
2695.200  3.389E-13
2695.400  5.125E-13
2695.600  4.926E-13
2695.800  4.253E-13
2696.000  3.429E-13
2696.200  3.765E-13
2696.400  4.380E-13
2696.600  4.259E-13
2696.800  4.504E-13
2697.000  4.089E-13
2697.200  6.048E-13
2697.400  5.020E-13
2697.600  4.325E-13
2697.800  5.126E-13
2698.000  4.694E-13
2698.200  4.649E-13
2698.400  6.440E-13
2698.600  4.890E-13
2698.800  8.991E-13
2699.000  9.670E-13
2699.200  9.757E-13
2699.400  9.564E-13
2699.600  6.442E-13
2699.800  5.420E-13
2700.000  5.370E-13
2700.200  5.340E-13
2700.400  6.303E-13
2700.600  6.753E-13
2700.800  6.070E-13
2701.000  7.081E-13
2701.200  6.170E-13
2701.400  6.015E-13
2701.600  3.327E-13
2701.800  4.904E-13
2702.000  4.708E-13
2702.200  3.779E-13
2702.400  3.949E-13
2702.600  4.932E-13
2702.800  3.947E-13
2703.000  4.175E-13
2703.200  5.273E-13
2703.400  6.181E-13
2703.600  6.599E-13
2703.800  6.676E-13
2704.000  6.339E-13
2704.200  5.522E-13
2704.400  6.526E-13
2704.600  5.818E-13
2704.800  6.306E-13
2705.000  6.462E-13
2705.200  6.392E-13
2705.400  9.253E-13
2705.600  6.812E-13
2705.800  6.512E-13
2706.000  4.777E-13
2706.200  5.424E-13
2706.400  4.387E-13
2706.600  4.019E-13
2706.800  4.699E-13
2707.000  5.366E-13
2707.200  3.520E-13
2707.400  4.915E-13
2707.600  5.249E-13
2707.800  6.250E-13
2708.000  6.252E-13
2708.200  6.159E-13
2708.400  6.148E-13
2708.600  6.546E-13
2708.800  7.375E-13
2709.000  7.902E-13
2709.200  1.093E-12
2709.400  4.955E-13
2709.600  7.975E-13
2709.800  1.687E-12
2710.000  1.725E-12
2710.200  6.510E-13
2710.400  6.358E-13
2710.600  5.565E-13
2710.800  6.114E-13
2711.000  4.458E-13
2711.200  6.567E-13
2711.400  8.188E-13
2711.600  5.150E-13
2711.800  7.074E-13
2712.000  6.920E-13
2712.200  3.116E-13
2712.400  4.105E-13
2712.600  8.059E-13
2712.800  9.676E-13
2713.000  9.582E-13
2713.200  5.391E-13
2713.400  5.726E-13
2713.600  5.372E-13
2713.800  6.373E-13
2714.000  4.873E-13
2714.200  5.462E-13
2714.400  6.309E-13
2714.600  8.212E-13
2714.800  1.110E-12
2715.000  1.165E-12
2715.200  1.209E-12
2715.400  8.405E-13
2715.600  7.802E-13
2715.800  5.691E-13
2716.000  4.257E-13
2716.200  4.261E-13
2716.400  9.908E-13
2716.600  7.620E-13
2716.800  5.787E-13
2717.000  6.479E-13
2717.200  1.488E-12
2717.400  1.414E-12
2717.600  7.016E-13
2717.800  5.928E-13
2718.000  9.875E-13
2718.200  8.951E-13
2718.400  4.584E-13
2718.600  5.282E-13
2718.800  5.007E-13
2719.000  4.664E-13
2719.200  3.780E-13
2719.400  3.128E-13
2719.600  1.381E-13
2719.800  2.368E-13
2720.000  3.412E-13
2720.200  4.406E-13
2720.400  4.227E-13
2720.600  4.258E-13
2720.800  4.148E-13
2721.000  4.671E-13
2721.200  3.304E-13
2721.400  2.429E-13
2721.600  2.558E-13
2721.800  5.772E-13
2722.000  5.815E-13
2722.200  5.839E-13
2722.400  5.301E-13
2722.600  3.824E-13
2722.800  4.349E-13
2723.000  6.021E-13
2723.200  1.065E-12
2723.400  1.069E-12
2723.600  6.433E-13
2723.800  5.000E-13
2724.000  4.948E-13
2724.200  2.464E-13
2724.400  4.500E-13
2724.600  4.660E-13
2724.800  5.015E-13
2725.000  5.794E-13
2725.200  1.794E-12
2725.400  2.100E-12
2725.600  2.004E-12
2725.800  7.878E-13
2726.000  6.311E-13
2726.200  5.553E-13
2726.400  4.910E-13
2726.600  4.923E-13
2726.800  4.241E-13
2727.000  5.329E-13
2727.200  5.019E-13
2727.400  5.728E-13
2727.600  8.188E-13
2727.800  1.078E-12
2728.000  1.115E-12
2728.200  1.282E-12
2728.400  1.275E-12
2728.600  4.983E-13
2728.800  5.376E-13
2729.000  6.283E-13
2729.200  5.616E-13
2729.400  4.460E-13
2729.600  5.836E-13
2729.800  7.896E-13
2730.000  6.639E-13
2730.200  7.351E-13
2730.400  9.013E-13
2730.600  7.949E-13
2730.800  6.737E-13
2731.000  1.132E-12
2731.200  1.514E-12
2731.400  1.460E-12
2731.600  1.078E-12
2731.800  6.154E-13
2732.000  6.134E-13
2732.200  6.649E-13
2732.400  6.100E-13
2732.600  4.291E-13
2732.800  1.598E-12
2733.000  2.474E-12
2733.200  1.864E-12
2733.400  4.389E-13
2733.600  5.712E-13
2733.800  5.804E-13
2734.000  4.766E-13
2734.200  3.666E-13
2734.400  5.191E-13
2734.600  5.979E-13
2734.800  5.324E-13
2735.000  5.027E-13
2735.200  4.930E-13
2735.400  5.072E-13
2735.600  7.817E-13
2735.800  6.579E-13
2736.000  5.218E-13
2736.200  4.682E-13
2736.400  8.444E-13
2736.600  7.328E-13
2736.800  6.797E-13
2737.000  6.601E-13
2737.200  1.092E-12
2737.400  1.481E-12
2737.600  1.453E-12
2737.800  1.377E-12
2738.000  3.984E-13
2738.200  4.293E-13
2738.400  4.032E-13
2738.600  5.430E-13
2738.800  5.481E-13
2739.000  6.054E-13
2739.200  5.067E-13
2739.400  5.077E-13
2739.600  7.482E-13
2739.800  1.320E-12
2740.000  1.310E-12
2740.200  1.626E-12
2740.400  1.828E-12
2740.600  9.830E-13
2740.800  4.237E-13
2741.000  5.189E-13
2741.200  5.673E-13
2741.400  5.140E-13
2741.600  4.701E-13
2741.800  8.223E-13
2742.000  9.831E-13
2742.200  5.390E-13
2742.400  5.516E-13
2742.600  3.806E-13
2742.800  4.088E-13
2743.000  1.785E-13
2743.200  3.956E-13
2743.400  8.337E-13
2743.600  9.208E-13
2743.800  9.113E-13
2744.000  1.035E-12
2744.200  8.352E-13
2744.400  7.437E-13
2744.600  3.984E-13
2744.800  6.384E-13
2745.000  5.503E-13
2745.200  6.007E-13
2745.400  6.007E-13
2745.600  5.346E-13
2745.800  6.815E-13
2746.000  7.318E-13
2746.200  6.427E-13
2746.400  5.135E-13
2746.600  8.094E-13
2746.800  1.102E-12
2747.000  9.021E-13
2747.200  9.556E-13
2747.400  9.326E-13
2747.600  9.240E-13
2747.800  1.165E-12
2748.000  8.989E-13
2748.200  4.885E-13
2748.400  6.870E-13
2748.600  5.908E-13
2748.800  5.039E-13
2749.000  6.195E-13
2749.200  6.955E-13
2749.400  8.164E-13
2749.600  8.148E-13
2749.800  6.417E-13
2750.000  9.470E-13
2750.200  1.457E-12
2750.400  1.127E-12
2750.600  4.119E-13
2750.800  2.303E-13
2751.000  4.287E-13
2751.200  4.171E-13
2751.400  3.503E-13
2751.600  5.464E-13
2751.800  5.187E-13
2752.000  7.572E-13
2752.200  6.159E-13
2752.400  5.283E-13
2752.600  5.572E-13
2752.800  6.668E-13
2753.000  7.998E-13
2753.200  7.604E-13
2753.400  6.874E-13
2753.600  6.539E-13
2753.800  6.024E-13
2754.000  6.576E-13
2754.200  6.727E-13
2754.400  4.948E-13
2754.600  4.397E-13
2754.800  6.041E-13
2755.000  5.342E-13
2755.200  5.234E-13
2755.400  6.309E-13
2755.600  6.149E-13
2755.800  9.442E-13
2756.000  1.688E-12
2756.200  1.598E-12
2756.400  2.127E-12
2756.600  2.505E-12
2756.800  1.091E-12
2757.000  4.557E-13
2757.200  5.033E-13
2757.400  5.523E-13
2757.600  5.159E-13
2757.800  4.966E-13
2758.000  5.902E-13
2758.200  9.035E-13
2758.400  8.952E-13
2758.600  6.698E-13
2758.800  7.453E-13
2759.000  7.966E-13
2759.200  6.758E-13
2759.400  6.179E-13
2759.600  7.631E-13
2759.800  2.156E-12
2760.000  2.121E-12
2760.200  7.048E-13
2760.400  8.420E-13
2760.600  7.505E-13
2760.800  6.102E-13
2761.000  5.913E-13
2761.200  6.008E-13
2761.400  6.000E-13
2761.600  6.900E-13
2761.800  7.550E-13
2762.000  7.350E-13
2762.200  1.905E-12
2762.400  1.939E-12
2762.600  1.818E-12
2762.800  5.987E-13
2763.000  7.025E-13
2763.200  3.539E-13
2763.400  5.642E-13
2763.600  6.319E-13
2763.800  7.696E-13
2764.000  7.195E-13
2764.200  9.324E-13
2764.400  8.303E-13
2764.600  5.037E-13
2764.800  3.930E-13
2765.000  1.001E-12
2765.200  1.291E-12
2765.400  7.880E-13
2765.600  1.315E-12
2765.800  1.025E-12
2766.000  1.052E-12
2766.200  7.683E-13
2766.400  6.716E-13
2766.600  8.763E-13
2766.800  6.772E-13
2767.000  5.244E-13
2767.200  3.896E-13
2767.400  5.390E-13
2767.600  8.345E-13
2767.800  8.780E-13
2768.000  7.144E-13
2768.200  7.427E-13
2768.400  8.221E-13
2768.600  8.860E-13
2768.800  7.644E-13
2769.000  7.192E-13
2769.200  1.125E-12
2769.400  2.031E-12
2769.600  2.023E-12
2769.800  1.132E-12
2770.000  1.138E-12
2770.200  7.460E-13
2770.400  5.766E-13
2770.600  9.649E-13
2770.800  1.053E-12
2771.000  8.500E-13
2771.200  5.558E-13
2771.400  5.574E-13
2771.600  8.457E-13
2771.800  9.246E-13
2772.000  1.029E-12
2772.200  7.488E-13
2772.400  7.501E-13
2772.600  3.939E-13
2772.800  3.717E-13
2773.000  5.485E-13
2773.200  1.541E-12
2773.400  1.523E-12
2773.600  1.024E-12
2773.800  7.882E-13
2774.000  8.832E-13
2774.200  9.420E-13
2774.400  9.530E-13
2774.600  8.643E-13
2774.800  7.443E-13
2775.000  9.626E-13
2775.200  9.913E-13
2775.400  9.054E-13
2775.600  8.067E-13
2775.800  1.901E-12
2776.000  1.848E-12
2776.200  9.830E-13
2776.400  8.644E-13
2776.600  1.143E-12
2776.800  7.649E-13
2777.000  7.935E-13
2777.200  5.475E-13
2777.400  6.248E-13
2777.600  1.073E-12
2777.800  1.109E-12
2778.000  9.865E-13
2778.200  8.371E-13
2778.400  6.700E-13
2778.600  6.048E-13
2778.800  3.412E-13
2779.000  6.863E-13
2779.200  7.123E-13
2779.400  6.066E-13
2779.600  8.652E-13
2779.800  8.901E-13
2780.000  6.301E-13
2780.200  7.601E-13
2780.400  3.890E-13
2780.600  8.800E-13
2780.800  8.760E-13
2781.000  8.022E-13
2781.200  5.801E-13
2781.400  5.477E-13
2781.600  6.355E-13
2781.800  6.580E-13
2782.000  4.529E-13
2782.200  7.213E-13
2782.400  5.983E-13
2782.600  5.577E-13
2782.800  6.219E-13
2783.000  6.166E-13
2783.200  6.623E-13
2783.400  5.851E-13
2783.600  4.995E-13
2783.800  7.189E-13
2784.000  7.061E-13
2784.200  6.381E-13
2784.400  6.274E-13
2784.600  7.611E-13
2784.800  7.327E-13
2785.000  7.231E-13
2785.200  7.180E-13
2785.400  9.761E-13
2785.600  9.284E-13
2785.800  8.700E-13
2786.000  7.213E-13
2786.200  7.216E-13
2786.400  6.239E-13
2786.600  6.202E-13
2786.800  6.648E-13
2787.000  6.406E-13
2787.200  7.503E-13
2787.400  6.337E-13
2787.600  7.468E-13
2787.800  6.709E-13
2788.000  6.429E-13
2788.200  6.115E-13
2788.400  6.267E-13
2788.600  3.401E-13
2788.800  5.021E-13
2789.000  8.735E-13
2789.200  7.228E-13
2789.400  6.595E-13
2789.600  6.782E-13
2789.800  8.241E-13
2790.000  6.494E-13
2790.200  5.986E-13
2790.400  6.634E-13
2790.600  6.605E-13
2790.800  6.207E-13
2791.000  6.505E-13
2791.200  8.737E-13
2791.400  8.895E-13
2791.600  6.751E-13
2791.800  8.805E-13
2792.000  7.213E-13
2792.200  5.797E-13
2792.400  5.570E-13
2792.600  6.559E-13
2792.800  6.117E-13
2793.000  5.044E-13
2793.200  5.120E-13
2793.400  4.986E-13
2793.600  5.245E-13
2793.800  4.548E-13
2794.000  4.881E-13
2794.200  4.293E-13
2794.400  4.070E-13
2794.600  3.179E-13
2794.800  4.657E-13
2795.000  1.355E-12
2795.200  3.201E-12
2795.400  2.883E-12
2795.600  4.027E-12
2795.800  8.473E-12
2796.000  1.368E-11
2796.200  1.345E-11
2796.400  5.530E-11
2796.600  5.628E-11
2796.800  2.632E-11
2797.000  5.236E-12
2797.200  1.040E-12
2797.400  5.059E-13
2797.600  5.638E-13
2797.800  4.097E-13
2798.000  3.951E-13
2798.200  3.951E-13
2798.400  6.151E-13
2798.600  6.047E-13
2798.800  4.229E-13
2799.000  3.876E-13
2799.200  3.718E-13
2799.400  4.536E-13
2799.600  4.827E-13
2799.800  4.743E-13
2800.000  4.815E-13
2800.200  4.642E-13
2800.400  4.402E-13
2800.600  4.563E-13
2800.800  4.742E-13
2801.000  4.914E-13
2801.200  4.636E-13
2801.400  4.722E-13
2801.600  3.597E-13
2801.800  4.119E-13
2802.000  4.037E-13
2802.200  7.090E-13
2802.400  1.600E-12
2802.600  5.248E-12
2802.800  5.288E-12
2803.000  7.703E-12
2803.200  1.094E-11
2803.400  1.180E-11
2803.600  3.588E-11
2803.800  3.289E-11
2804.000  8.846E-12
2804.200  1.492E-12
2804.400  5.239E-13
2804.600  4.375E-13
2804.800  4.342E-13
2805.000  4.325E-13
2805.200  5.146E-13
2805.400  5.425E-13
2805.600  4.475E-13
2805.800  5.145E-13
2806.000  6.328E-13
2806.200  6.471E-13
2806.400  5.217E-13
2806.600  5.758E-13
2806.800  6.572E-13
2807.000  5.948E-13
2807.200  6.020E-13
2807.400  6.350E-13
2807.600  3.964E-13
2807.800  3.870E-13
2808.000  5.697E-13
2808.200  8.706E-13
2808.400  7.725E-13
2808.600  6.259E-13
2808.800  5.990E-13
2809.000  8.132E-13
2809.200  7.796E-13
2809.400  7.934E-13
2809.600  6.401E-13
2809.800  7.700E-13
2810.000  6.978E-13
2810.200  7.144E-13
2810.400  7.531E-13
2810.600  7.126E-13
2810.800  6.809E-13
2811.000  6.750E-13
2811.200  9.409E-13
2811.400  9.409E-13
2811.600  7.386E-13
2811.800  5.343E-13
2812.000  4.231E-13
2812.200  4.552E-13
2812.400  5.038E-13
2812.600  6.082E-13
2812.800  5.936E-13
2813.000  6.985E-13
2813.200  5.701E-13
2813.400  6.354E-13
2813.600  7.092E-13
2813.800  7.160E-13
2814.000  6.326E-13
2814.200  6.291E-13
2814.400  7.017E-13
2814.600  7.059E-13
2814.800  7.829E-13
2815.000  8.548E-13
2815.200  8.292E-13
2815.400  1.078E-12
2815.600  8.075E-13
2815.800  1.054E-12
2816.000  5.973E-13
2816.200  7.872E-13
2816.400  8.903E-13
2816.600  8.849E-13
2816.800  1.121E-12
2817.000  7.300E-13
2817.200  7.541E-13
2817.400  9.188E-13
2817.600  1.004E-12
2817.800  9.752E-13
2818.000  5.442E-13
2818.200  7.459E-13
2818.400  7.466E-13
2818.600  1.138E-12
2818.800  1.185E-12
2819.000  8.395E-13
2819.200  8.194E-13
2819.400  7.447E-13
2819.600  7.534E-13
2819.800  6.398E-13
2820.000  7.439E-13
2820.200  1.069E-12
2820.400  1.057E-12
2820.600  9.953E-13
2820.800  8.215E-13
2821.000  6.369E-13
2821.200  7.167E-13
2821.400  6.199E-13
2821.600  8.871E-13
2821.800  8.127E-13
2822.000  8.245E-13
2822.200  8.287E-13
2822.400  8.331E-13
2822.600  8.900E-13
2822.800  9.975E-13
2823.000  6.988E-13
2823.200  6.183E-13
2823.400  7.976E-13
2823.600  1.944E-12
2823.800  1.028E-11
2824.000  7.539E-12
2824.200  1.054E-12
2824.400  1.050E-12
2824.600  8.822E-13
2824.800  9.014E-13
2825.000  8.694E-13
2825.200  8.907E-13
2825.400  1.103E-12
2825.600  1.307E-12
2825.800  8.416E-13
2826.000  7.546E-13
2826.200  3.370E-13
2826.400  5.602E-13
2826.600  5.230E-13
2826.800  8.793E-13
2827.000  9.695E-13
2827.200  6.417E-13
2827.400  1.005E-12
2827.600  9.838E-13
2827.800  9.680E-13
2828.000  9.822E-13
2828.200  9.314E-13
2828.400  9.355E-13
2828.600  8.558E-13
2828.800  9.323E-13
2829.000  1.020E-12
2829.200  9.836E-13
2829.400  5.472E-13
2829.600  9.453E-13
2829.800  8.292E-13
2830.000  9.820E-13
2830.200  9.654E-13
2830.400  9.460E-13
2830.600  9.493E-13
2830.800  7.353E-13
2831.000  8.146E-13
2831.200  8.915E-13
2831.400  1.024E-12
2831.600  9.222E-13
2831.800  1.268E-12
2832.000  1.284E-12
2832.200  5.652E-13
2832.400  6.252E-13
2832.600  8.760E-13
2832.800  6.111E-13
2833.000  4.696E-13
2833.200  9.398E-13
2833.400  1.128E-12
2833.600  9.945E-13
2833.800  1.182E-12
2834.000  1.263E-12
2834.200  9.164E-13
2834.400  7.369E-13
2834.600  7.468E-13
2834.800  8.121E-13
2835.000  8.006E-13
2835.200  6.602E-13
2835.400  8.221E-13
2835.600  9.612E-13
2835.800  9.749E-13
2836.000  5.302E-13
2836.200  1.806E-13
2836.400  4.235E-13
2836.600  8.026E-13
2836.800  7.551E-13
2837.000  8.122E-13
2837.200  7.400E-13
2837.400  9.590E-13
2837.600  9.417E-13
2837.800  7.539E-13
2838.000  1.007E-12
2838.200  1.024E-12
2838.400  9.479E-13
2838.600  7.687E-13
2838.800  8.239E-13
2839.000  9.341E-13
2839.200  9.759E-13
2839.400  8.899E-13
2839.600  6.817E-13
2839.800  6.558E-13
2840.000  8.049E-13
2840.200  9.525E-13
2840.400  9.238E-13
2840.600  7.226E-13
2840.800  8.423E-13
2841.000  5.041E-13
2841.200  4.103E-13
2841.400  5.762E-13
2841.600  7.451E-13
2841.800  7.837E-13
2842.000  7.191E-13
2842.200  9.267E-13
2842.400  9.172E-13
2842.600  6.562E-13
2842.800  7.334E-13
2843.000  7.261E-13
2843.200  6.884E-13
2843.400  7.123E-13
2843.600  7.482E-13
2843.800  4.624E-13
2844.000  5.740E-13
2844.200  6.778E-13
2844.400  3.848E-12
2844.600  8.940E-12
2844.800  2.259E-12
2845.000  7.579E-13
2845.200  7.399E-13
2845.400  8.637E-13
2845.600  7.777E-13
2845.800  7.918E-13
2846.000  7.405E-13
2846.200  7.318E-13
2846.400  7.053E-13
2846.600  7.842E-13
2846.800  7.880E-13
2847.000  6.671E-13
2847.200  7.148E-13
2847.400  5.934E-13
2847.600  6.817E-13
2847.800  6.472E-13
2848.000  6.455E-13
2848.200  5.893E-13
2848.400  6.047E-13
2848.600  6.513E-13
2848.800  6.397E-13
2849.000  7.746E-13
2849.200  7.970E-13
2849.400  6.002E-13
2849.600  5.418E-13
2849.800  5.093E-13
2850.000  4.908E-13
2850.200  4.904E-13
2850.400  3.487E-13
2850.600  3.547E-13
2850.800  4.255E-13
2851.000  4.184E-13
2851.200  3.536E-13
2851.400  3.268E-13
2851.600  3.337E-13
2851.800  2.903E-13
2852.000  3.328E-13
2852.200  6.330E-13
2852.400  6.698E-13
2852.600  5.649E-13
2852.800  6.856E-13
2853.000  1.108E-12
2853.200  8.282E-13
2853.400  3.093E-13
2853.600  2.628E-13
2853.800  2.571E-13
2854.000  3.072E-13
2854.200  3.206E-13
2854.400  3.590E-13
2854.600  3.581E-13
2854.800  3.874E-13
2855.000  3.888E-13
2855.200  4.552E-13
2855.400  5.067E-13
2855.600  4.877E-13
2855.800  4.656E-13
2856.000  5.565E-13
2856.200  5.498E-13
2856.400  3.864E-13
2856.600  8.434E-13
2856.800  8.512E-13
2857.000  5.351E-13
2857.200  9.926E-13
2857.400  1.058E-12
2857.600  7.691E-13
2857.800  7.878E-13
2858.000  8.555E-13
2858.200  7.089E-13
2858.400  6.827E-13
2858.600  6.575E-13
2858.800  6.685E-13
2859.000  6.548E-13
2859.200  1.009E-12
2859.400  8.122E-13
2859.600  5.610E-13
2859.800  8.041E-13
2860.000  8.160E-13
2860.200  7.900E-13
2860.400  8.151E-13
2860.600  8.649E-13
2860.800  8.923E-13
2861.000  9.161E-13
2861.200  8.579E-13
2861.400  9.038E-13
2861.600  2.314E-12
2861.800  3.247E-12
2862.000  1.155E-12
2862.200  9.629E-13
2862.400  8.800E-13
2862.600  8.142E-13
2862.800  9.975E-13
2863.000  6.716E-13
2863.200  4.284E-13
2863.400  8.970E-13
2863.600  9.358E-13
2863.800  1.040E-12
2864.000  7.328E-13
2864.200  8.188E-13
2864.400  4.047E-13
2864.600  9.726E-13
2864.800  1.061E-12
2865.000  9.352E-13
2865.200  1.120E-12
2865.400  1.149E-12
2865.600  9.529E-13
2865.800  7.515E-13
2866.000  8.607E-13
2866.200  7.073E-13
2866.400  9.805E-13
2866.600  1.209E-12
2866.800  1.121E-12
2867.000  1.186E-12
2867.200  1.027E-12
2867.400  8.592E-13
2867.600  1.414E-12
2867.800  1.298E-12
2868.000  9.483E-13
2868.200  6.355E-13
2868.400  7.162E-13
2868.600  1.042E-12
2868.800  1.074E-12
2869.000  1.097E-12
2869.200  1.815E-12
2869.400  5.595E-12
2869.600  5.284E-12
2869.800  1.033E-12
2870.000  9.033E-13
2870.200  1.057E-12
2870.400  8.352E-13
2870.600  9.675E-13
2870.800  1.515E-12
2871.000  1.598E-12
2871.200  1.152E-12
2871.400  1.338E-12
2871.600  1.318E-12
2871.800  1.067E-12
2872.000  1.174E-12
2872.200  1.129E-12
2872.400  1.025E-12
2872.600  1.019E-12
2872.800  1.017E-12
2873.000  8.107E-13
2873.200  1.060E-12
2873.400  1.176E-12
2873.600  1.191E-12
2873.800  1.169E-12
2874.000  8.647E-13
2874.200  8.068E-13
2874.400  8.779E-13
2874.600  7.538E-13
2874.800  5.023E-13
2875.000  1.087E-12
2875.200  1.622E-12
2875.400  1.695E-12
2875.600  1.443E-12
2875.800  9.899E-13
2876.000  6.175E-13
2876.200  6.854E-13
2876.400  1.127E-12
2876.600  1.231E-12
2876.800  8.937E-13
2877.000  6.591E-13
2877.200  8.594E-13
2877.400  9.042E-13
2877.600  1.036E-12
2877.800  9.838E-13
2878.000  6.580E-13
2878.200  8.967E-13
2878.400  9.682E-13
2878.600  8.798E-13
2878.800  1.156E-12
2879.000  1.114E-12
2879.200  7.424E-13
2879.400  6.865E-13
2879.600  6.824E-13
2879.800  6.629E-13
2880.000  9.794E-13
2880.200  1.224E-12
2880.400  1.255E-12
2880.600  9.970E-13
2880.800  1.068E-12
2881.000  1.379E-12
2881.200  2.268E-12
2881.400  2.340E-12
2881.600  1.705E-12
2881.800  8.931E-13
2882.000  7.415E-13
2882.200  5.328E-13
2882.400  7.525E-13
2882.600  9.855E-13
2882.800  9.845E-13
2883.000  9.794E-13
2883.200  1.027E-12
2883.400  1.028E-12
2883.600  1.145E-12
2883.800  1.424E-12
2884.000  1.522E-12
2884.200  1.233E-12
2884.400  7.436E-13
2884.600  8.279E-13
2884.800  1.396E-12
2885.000  1.750E-12
2885.200  1.658E-12
2885.400  1.016E-12
2885.600  1.295E-12
2885.800  1.377E-12
2886.000  1.583E-12
2886.200  1.608E-12
2886.400  1.284E-12
2886.600  1.359E-12
2886.800  1.392E-12
2887.000  9.311E-13
2887.200  1.105E-12
2887.400  1.333E-12
2887.600  1.388E-12
2887.800  1.421E-12
2888.000  1.537E-12
2888.200  1.797E-12
2888.400  1.619E-12
2888.600  8.488E-13
2888.800  1.162E-12
2889.000  1.581E-12
2889.200  1.656E-12
2889.400  1.571E-12
2889.600  1.137E-12
2889.800  1.237E-12
2890.000  1.200E-12
2890.200  1.116E-12
2890.400  8.466E-13
2890.600  1.136E-12
2890.800  1.384E-12
2891.000  1.221E-12
2891.200  1.335E-12
2891.400  1.595E-12
2891.600  1.510E-12
2891.800  8.341E-13
2892.000  8.695E-13
2892.200  8.879E-13
2892.400  1.110E-12
2892.600  1.467E-12
2892.800  1.499E-12
2893.000  1.148E-12
2893.200  1.428E-12
2893.400  2.240E-12
2893.600  2.163E-12
2893.800  1.282E-12
2894.000  7.768E-13
2894.200  1.302E-12
2894.400  1.265E-12
2894.600  1.297E-12
2894.800  1.202E-12
2895.000  1.064E-12
2895.200  1.340E-12
2895.400  1.356E-12
2895.600  1.052E-12
2895.800  1.337E-12
2896.000  1.639E-12
2896.200  1.670E-12
2896.400  1.354E-12
2896.600  1.098E-12
2896.800  1.084E-12
2897.000  1.112E-12
2897.200  1.002E-12
2897.400  1.364E-12
2897.600  1.424E-12
2897.800  1.396E-12
2898.000  1.552E-12
2898.200  1.538E-12
2898.400  1.209E-12
2898.600  1.193E-12
2898.800  1.112E-12
2899.000  1.286E-12
2899.200  1.269E-12
2899.400  1.160E-12
2899.600  1.439E-12
2899.800  1.326E-12
2900.000  9.586E-13
2900.200  1.359E-12
2900.400  1.645E-12
2900.600  1.672E-12
2900.800  1.346E-12
2901.000  1.595E-12
2901.200  1.680E-12
2901.400  1.581E-12
2901.600  1.379E-12
2901.800  1.471E-12
2902.000  1.147E-12
2902.200  1.425E-12
2902.400  1.454E-12
2902.600  1.329E-12
2902.800  1.555E-12
2903.000  1.474E-12
2903.200  1.674E-12
2903.400  1.819E-12
2903.600  1.349E-12
2903.800  1.550E-12
2904.000  2.126E-12
2904.200  2.062E-12
2904.400  1.659E-12
2904.600  1.321E-12
2904.800  8.537E-13
2905.000  1.217E-12
2905.200  2.012E-12
2905.400  2.241E-12
2905.600  2.117E-12
2905.800  1.745E-12
2906.000  1.481E-12
2906.200  1.723E-12
2906.400  1.996E-12
2906.600  1.931E-12
2906.800  1.504E-12
2907.000  1.411E-12
2907.200  1.480E-12
2907.400  2.124E-12
2907.600  2.132E-12
2907.800  1.738E-12
2908.000  1.254E-12
2908.200  1.602E-12
2908.400  1.684E-12
2908.600  1.484E-12
2908.800  1.761E-12
2909.000  1.619E-12
2909.200  1.354E-12
2909.400  9.284E-13
2909.600  1.184E-12
2909.800  1.851E-12
2910.000  1.783E-12
2910.200  2.118E-12
2910.400  2.066E-12
2910.600  1.126E-12
2910.800  1.436E-12
2911.000  1.295E-12
2911.200  1.353E-12
2911.400  1.360E-12
2911.600  9.823E-13
2911.800  1.561E-12
2912.000  2.082E-12
2912.200  1.991E-12
2912.400  1.475E-12
2912.600  1.138E-12
2912.800  6.585E-13
2913.000  1.614E-12
2913.200  2.230E-12
2913.400  2.420E-12
2913.600  2.310E-12
2913.800  2.081E-12
2914.000  2.101E-12
2914.200  1.458E-12
2914.400  1.321E-12
2914.600  1.282E-12
2914.800  9.703E-13
2915.000  1.480E-12
2915.200  1.877E-12
2915.400  2.054E-12
2915.600  1.866E-12
2915.800  1.942E-12
2916.000  1.980E-12
2916.200  2.017E-12
2916.400  2.131E-12
2916.600  1.985E-12
2916.800  1.483E-12
2917.000  1.739E-12
2917.200  1.759E-12
2917.400  1.759E-12
2917.600  1.520E-12
2917.800  1.521E-12
2918.000  2.099E-12
2918.200  2.315E-12
2918.400  2.307E-12
2918.600  1.675E-12
2918.800  1.393E-12
2919.000  1.839E-12
2919.200  1.841E-12
2919.400  1.299E-12
2919.600  1.283E-12
2919.800  1.469E-12
2920.000  2.325E-12
2920.200  2.294E-12
2920.400  1.876E-12
2920.600  1.147E-12
2920.800  1.362E-12
2921.000  1.391E-12
2921.200  1.502E-12
2921.400  1.581E-12
2921.600  1.712E-12
2921.800  2.129E-12
2922.000  2.343E-12
2922.200  2.166E-12
2922.400  1.623E-12
2922.600  1.605E-12
2922.800  1.527E-12
2923.000  1.553E-12
2923.200  1.690E-12
2923.400  2.406E-12
2923.600  2.524E-12
2923.800  1.856E-12
2924.000  1.210E-12
2924.200  1.236E-12
2924.400  1.331E-12
2924.600  1.067E-12
2924.800  1.643E-12
2925.000  1.588E-12
2925.200  9.196E-13
2925.400  1.406E-12
2925.600  1.776E-12
2925.800  1.687E-12
2926.000  1.665E-12
2926.200  1.344E-12
2926.400  1.074E-12
2926.600  1.389E-12
2926.800  1.553E-12
2927.000  1.571E-12
2927.200  1.423E-12
2927.400  1.146E-12
2927.600  1.486E-12
2927.800  1.819E-12
2928.000  1.910E-12
2928.200  1.612E-12
2928.400  1.360E-12
2928.600  1.207E-12
2928.800  1.153E-12
2929.000  1.310E-12
2929.200  1.307E-12
2929.400  8.237E-13
2929.600  3.508E-13
2929.800  1.092E-12
2930.000  1.380E-12
2930.200  1.351E-12
2930.400  1.790E-12
2930.600  2.051E-12
2930.800  2.054E-12
2931.000  2.028E-12
2931.200  1.977E-12
2931.400  1.216E-12
2931.600  2.200E-12
2931.800  2.519E-12
2932.000  2.021E-12
2932.200  1.536E-12
2932.400  1.793E-12
2932.600  2.184E-12
2932.800  2.450E-12
2933.000  2.315E-12
2933.200  2.012E-12
2933.400  1.985E-12
2933.600  1.665E-12
2933.800  1.642E-12
2934.000  1.804E-12
2934.200  1.686E-12
2934.400  1.608E-12
2934.600  1.584E-12
2934.800  1.647E-12
2935.000  1.515E-12
2935.200  1.786E-12
2935.400  2.438E-12
2935.600  2.436E-12
2935.800  1.973E-12
2936.000  2.344E-12
2936.200  2.172E-12
2936.400  2.172E-12
2936.600  1.656E-12
2936.800  1.168E-12
2937.000  1.165E-12
2937.200  7.817E-13
2937.400  3.954E-13
2937.600  3.637E-13
2937.800  9.381E-13
2938.000  1.290E-12
2938.200  1.438E-12
2938.400  1.387E-12
2938.600  1.563E-12
2938.800  1.531E-12
2939.000  1.323E-12
2939.200  1.738E-12
2939.400  2.028E-12
2939.600  2.046E-12
2939.800  1.557E-12
2940.000  1.365E-12
2940.200  2.130E-12
2940.400  2.594E-12
2940.600  2.843E-12
2940.800  2.662E-12
2941.000  1.771E-12
2941.200  1.683E-12
2941.400  1.952E-12
2941.600  1.848E-12
2941.800  1.163E-12
2942.000  6.077E-13
2942.200  1.352E-12
2942.400  1.526E-12
2942.600  1.478E-12
2942.800  1.811E-12
2943.000  1.847E-12
2943.200  1.947E-12
2943.400  2.148E-12
2943.600  2.117E-12
2943.800  1.913E-12
2944.000  2.083E-12
2944.200  1.880E-12
2944.400  1.373E-12
2944.600  1.402E-12
2944.800  1.591E-12
2945.000  1.353E-12
2945.200  1.249E-12
2945.400  1.828E-12
2945.600  1.774E-12
2945.800  1.711E-12
2946.000  1.897E-12
2946.200  1.860E-12
2946.400  1.612E-12
2946.600  1.851E-12
2946.800  2.047E-12
2947.000  2.089E-12
2947.200  1.989E-12
2947.400  1.978E-12
2947.600  1.679E-12
2947.800  1.458E-12
2948.000  1.184E-12
2948.200  9.923E-13
2948.400  7.389E-13
2948.600  5.503E-13
2948.800  9.145E-13
2949.000  1.139E-12
2949.200  1.339E-12
2949.400  1.397E-12
2949.600  1.359E-12
2949.800  1.094E-12
2950.000  1.392E-12
2950.200  1.713E-12
2950.400  2.419E-12
2950.600  2.469E-12
2950.800  2.039E-12
2951.000  1.785E-12
2951.200  2.291E-12
2951.400  2.159E-12
2951.600  1.938E-12
2951.800  1.891E-12
2952.000  1.686E-12
2952.200  2.077E-12
2952.400  2.087E-12
2952.600  1.775E-12
2952.800  1.443E-12
2953.000  2.251E-12
2953.200  2.414E-12
2953.400  2.380E-12
2953.600  1.985E-12
2953.800  1.839E-12
2954.000  1.531E-12
2954.200  1.235E-12
2954.400  1.200E-12
2954.600  7.596E-13
2954.800  1.102E-12
2955.000  1.427E-12
2955.200  1.409E-12
2955.400  1.479E-12
2955.600  1.501E-12
2955.800  1.801E-12
2956.000  2.046E-12
2956.200  1.993E-12
2956.400  1.780E-12
2956.600  1.565E-12
2956.800  1.241E-12
2957.000  1.639E-12
2957.200  1.623E-12
2957.400  1.264E-12
2957.600  1.357E-12
2957.800  1.135E-12
2958.000  4.815E-13
2958.200  1.045E-12
2958.400  1.728E-12
2958.600  1.840E-12
2958.800  1.865E-12
2959.000  2.081E-12
2959.200  2.203E-12
2959.400  2.235E-12
2959.600  2.213E-12
2959.800  2.096E-12
2960.000  1.766E-12
2960.200  1.727E-12
2960.400  1.661E-12
2960.600  1.640E-12
2960.800  1.440E-12
2961.000  1.319E-12
2961.200  1.657E-12
2961.400  2.003E-12
2961.600  2.058E-12
2961.800  1.864E-12
2962.000  1.498E-12
2962.200  1.934E-12
2962.400  2.052E-12
2962.600  2.068E-12
2962.800  1.805E-12
2963.000  1.873E-12
2963.200  1.807E-12
2963.400  1.852E-12
2963.600  2.288E-12
2963.800  2.341E-12
2964.000  2.187E-12
2964.200  1.658E-12
2964.400  2.186E-12
2964.600  2.242E-12
2964.800  1.582E-12
2965.000  1.748E-12
2965.200  1.642E-12
2965.400  1.684E-12
2965.600  1.636E-12
2965.800  9.632E-13
2966.000  9.405E-13
2966.200  1.366E-12
2966.400  1.362E-12
2966.600  1.196E-12
2966.800  8.831E-13
2967.000  9.324E-13
2967.200  8.244E-13
2967.400  4.257E-13
2967.600  7.686E-13
2967.800  1.640E-12
2968.000  1.632E-12
2968.200  1.060E-12
2968.400  1.537E-12
2968.600  1.625E-12
2968.800  1.492E-12
2969.000  1.254E-12
2969.200  1.385E-12
2969.400  1.543E-12
2969.600  1.423E-12
2969.800  1.209E-12
2970.000  7.107E-13
2970.200  1.056E-12
2970.400  1.169E-12
2970.600  8.753E-13
2970.800  1.047E-12
2971.000  1.880E-12
2971.200  1.900E-12
2971.400  1.629E-12
2971.600  1.660E-12
2971.800  1.764E-12
2972.000  2.158E-12
2972.200  2.097E-12
2972.400  1.570E-12
2972.600  1.558E-12
2972.800  1.570E-12
2973.000  1.360E-12
2973.200  1.361E-12
2973.400  1.120E-12
2973.600  7.387E-13
2973.800  2.997E-13
2974.000  5.033E-13
2974.200  1.152E-12
2974.400  1.607E-12
2974.600  1.868E-12
2974.800  1.869E-12
2975.000  2.197E-12
2975.200  2.377E-12
2975.400  2.185E-12
2975.600  2.132E-12
2975.800  2.105E-12
2976.000  1.579E-12
2976.200  1.356E-12
2976.400  1.691E-12
2976.600  1.666E-12
2976.800  1.394E-12
2977.000  1.701E-12
2977.200  1.866E-12
2977.400  2.216E-12
2977.600  2.452E-12
2977.800  2.944E-12
2978.000  2.950E-12
2978.200  2.483E-12
2978.400  2.703E-12
2978.600  2.501E-12
2978.800  2.072E-12
2979.000  2.286E-12
2979.200  2.413E-12
2979.400  2.413E-12
2979.600  2.159E-12
2979.800  2.079E-12
2980.000  1.878E-12
2980.200  1.759E-12
2980.400  1.798E-12
2980.600  2.258E-12
2980.800  2.902E-12
2981.000  2.863E-12
2981.200  1.941E-12
2981.400  1.515E-12
2981.600  1.652E-12
2981.800  1.620E-12
2982.000  9.221E-13
2982.200  4.520E-13
2982.400  9.968E-13
2982.600  1.525E-12
2982.800  1.625E-12
2983.000  1.703E-12
2983.200  1.721E-12
2983.400  1.552E-12
2983.600  1.258E-12
2983.800  9.910E-13
2984.000  6.869E-13
2984.200  3.239E-13
2984.400  5.885E-13
2984.600  7.632E-13
2984.800  1.152E-12
2985.000  1.540E-12
2985.200  1.537E-12
2985.400  1.287E-12
2985.600  1.469E-12
2985.800  1.783E-12
2986.000  1.735E-12
2986.200  1.276E-12
2986.400  1.089E-12
2986.600  1.248E-12
2986.800  1.480E-12
2987.000  1.187E-12
2987.200  1.704E-12
2987.400  2.566E-12
2987.600  2.468E-12
2987.800  1.168E-12
2988.000  1.519E-12
2988.200  1.730E-12
2988.400  1.769E-12
2988.600  2.205E-12
2988.800  2.705E-12
2989.000  2.686E-12
2989.200  1.513E-12
2989.400  1.998E-12
2989.600  2.172E-12
2989.800  2.136E-12
2990.000  2.095E-12
2990.200  1.566E-12
2990.400  2.872E-12
2990.600  3.073E-12
2990.800  3.057E-12
2991.000  2.454E-12
2991.200  3.058E-12
2991.400  3.120E-12
2991.600  2.470E-12
2991.800  2.363E-12
2992.000  2.655E-12
2992.200  2.336E-12
2992.400  1.775E-12
2992.600  2.435E-12
2992.800  2.583E-12
2993.000  2.164E-12
2993.200  1.273E-12
2993.400  2.142E-12
2993.600  2.462E-12
2993.800  2.392E-12
2994.000  2.146E-12
2994.200  2.015E-12
2994.400  1.755E-12
2994.600  1.383E-12
2994.800  9.496E-13
2995.000  4.629E-13
2995.200  4.019E-13
2995.400  8.522E-13
2995.600  1.173E-12
2995.800  1.564E-12
2996.000  1.858E-12
2996.200  2.260E-12
2996.400  2.499E-12
2996.600  2.524E-12
2996.800  2.652E-12
2997.000  2.345E-12
2997.200  1.724E-12
2997.400  2.503E-12
2997.600  2.767E-12
2997.800  2.548E-12
2998.000  2.364E-12
2998.200  2.673E-12
2998.400  2.665E-12
2998.600  2.200E-12
2998.800  2.441E-12
2999.000  2.522E-12
2999.200  2.535E-12
2999.400  2.160E-12
2999.600  1.607E-12
2999.800  1.587E-12
3000.000  1.218E-12
3000.200  1.044E-12
3000.400  1.671E-12
3000.600  1.724E-12
3000.800  1.674E-12
3001.000  1.398E-12
3001.200  7.380E-13
3001.400  6.542E-13
3001.600  3.455E-13
3001.800  7.773E-13
3002.000  1.403E-12
3002.200  1.706E-12
3002.400  1.768E-12
3002.600  1.771E-12
3002.800  1.669E-12
3003.000  1.376E-12
3003.200  1.306E-12
3003.400  1.348E-12
3003.600  1.185E-12
3003.800  1.800E-12
3004.000  1.853E-12
3004.200  1.156E-12
3004.400  1.683E-12
3004.600  2.123E-12
3004.800  2.238E-12
3005.000  2.688E-12
3005.200  2.653E-12
3005.400  2.738E-12
3005.600  2.568E-12
3005.800  2.198E-12
3006.000  2.192E-12
3006.200  2.616E-12
3006.400  2.635E-12
3006.600  2.452E-12
3006.800  2.717E-12
3007.000  2.749E-12
3007.200  2.401E-12
3007.400  1.970E-12
3007.600  1.761E-12
3007.800  1.211E-12
3008.000  1.394E-12
3008.200  1.891E-12
3008.400  1.797E-12
3008.600  1.148E-12
3008.800  5.140E-13
3009.000  1.161E-12
3009.200  1.600E-12
3009.400  2.094E-12
3009.600  2.085E-12
3009.800  1.570E-12
3010.000  1.608E-12
3010.200  1.202E-12
3010.400  2.193E-12
3010.600  2.621E-12
3010.800  2.971E-12
3011.000  3.516E-12
3011.200  3.531E-12
3011.400  3.170E-12
3011.600  3.562E-12
3011.800  3.573E-12
3012.000  2.943E-12
3012.200  2.481E-12
3012.400  2.463E-12
3012.600  1.623E-12
3012.800  2.211E-12
3013.000  2.443E-12
3013.200  3.142E-12
3013.400  3.234E-12
3013.600  2.595E-12
3013.800  2.547E-12
3014.000  2.581E-12
3014.200  1.900E-12
3014.400  1.949E-12
3014.600  2.318E-12
3014.800  2.233E-12
3015.000  3.201E-12
3015.200  3.179E-12
3015.400  2.035E-12
3015.600  1.486E-12
3015.800  1.678E-12
3016.000  2.735E-12
3016.200  2.919E-12
3016.400  2.774E-12
3016.600  2.039E-12
3016.800  1.753E-12
3017.000  2.407E-12
3017.200  2.519E-12
3017.400  2.289E-12
3017.600  2.232E-12
3017.800  1.980E-12
3018.000  1.372E-12
3018.200  8.041E-13
3018.400  9.679E-13
3018.600  1.637E-12
3018.800  1.863E-12
3019.000  1.869E-12
3019.200  1.609E-12
3019.400  1.523E-12
3019.600  1.028E-12
3019.800  8.386E-13
3020.000  1.518E-12
3020.200  1.519E-12
3020.400  1.361E-12
3020.600  8.359E-13
3020.800  6.332E-13
3021.000  4.604E-13
3021.200  2.374E-13
3021.400  2.064E-13
3021.600  2.237E-13
3021.800  2.874E-13
3022.000  6.510E-13
3022.200  9.065E-13
3022.400  1.338E-12
3022.600  1.600E-12
3022.800  1.661E-12
3023.000  1.775E-12
3023.200  1.793E-12
3023.400  2.105E-12
3023.600  2.362E-12
3023.800  2.459E-12
3024.000  2.488E-12
3024.200  2.443E-12
3024.400  2.277E-12
3024.600  1.334E-12
3024.800  1.193E-12
3025.000  1.713E-12
3025.200  2.310E-12
3025.400  2.341E-12
3025.600  2.182E-12
3025.800  2.040E-12
3026.000  1.557E-12
3026.200  1.243E-12
3026.400  5.847E-13
3028.200  2.924E-12
3028.400  2.856E-12
3028.600  2.547E-12
3028.800  2.863E-12
3029.000  3.262E-12
3029.200  3.541E-12
3029.400  3.538E-12
3029.600  2.939E-12
3029.800  2.019E-12
3030.000  2.710E-12
3030.200  2.765E-12
3030.400  2.572E-12
3030.600  2.698E-12
3030.800  2.189E-12
3031.000  2.585E-12
3031.200  2.680E-12
3031.400  2.718E-12
3031.600  2.411E-12
3031.800  1.894E-12
3032.000  1.601E-12
3032.200  1.699E-12
3032.400  1.374E-12
3032.600  2.557E-12
3032.800  3.947E-12
3033.000  4.014E-12
3033.200  3.706E-12
3033.400  3.450E-12
3033.600  2.938E-12
3033.800  3.491E-12
3034.000  3.375E-12
3034.200  3.172E-12
3034.400  3.179E-12
3034.600  2.903E-12
3034.800  2.105E-12
3035.000  1.777E-12
3035.200  2.456E-12
3035.400  3.466E-12
3035.600  3.830E-12
3035.800  3.854E-12
3036.000  3.614E-12
3036.200  3.681E-12
3036.400  3.231E-12
3036.600  3.523E-12
3036.800  3.400E-12
3037.000  2.782E-12
3037.200  2.296E-12
3037.400  2.018E-12
3037.600  1.552E-12
3037.800  9.301E-13
3038.000  4.570E-13
3038.200  6.384E-13
3038.400  7.229E-13
3038.600  1.120E-12
3038.800  2.127E-12
3039.000  2.763E-12
3039.200  2.851E-12
3039.400  2.817E-12
3039.600  2.712E-12
3039.800  2.636E-12
3040.000  2.973E-12
3040.200  3.047E-12
3040.400  3.136E-12
3040.600  3.489E-12
3040.800  3.409E-12
3041.000  2.122E-12
3041.200  2.132E-12
3041.400  2.235E-12
3041.600  2.717E-12
3041.800  3.443E-12
3042.000  3.365E-12
3042.200  2.405E-12
3042.400  1.223E-12
3042.600  1.468E-12
3042.800  2.401E-12
3043.000  2.470E-12
3043.200  1.600E-12
3043.400  2.108E-12
3043.600  3.002E-12
3043.800  3.385E-12
3044.000  3.450E-12
3044.200  3.204E-12
3044.400  3.166E-12
3044.600  1.780E-12
3044.800  2.671E-12
3045.000  2.991E-12
3045.200  3.202E-12
3045.400  3.240E-12
3045.600  1.988E-12
3045.800  3.057E-12
3046.000  3.463E-12
3046.200  3.124E-12
3046.400  3.279E-12
3046.600  3.431E-12
3046.800  3.386E-12
3047.000  3.210E-12
3047.200  2.802E-12
3047.400  1.878E-12
3047.600  1.502E-12
3047.800  1.267E-12
3048.000  9.376E-13
3048.200  4.488E-13
3048.400  5.932E-13
3048.600  1.472E-12
3048.800  1.779E-12
3049.000  1.805E-12
3049.200  1.920E-12
3049.400  1.900E-12
3049.600  2.506E-12
3049.800  3.218E-12
3050.000  3.206E-12
3050.200  3.863E-12
3050.400  4.136E-12
3050.600  3.980E-12
3050.800  3.230E-12
3051.000  3.000E-12
3051.200  2.786E-12
3051.400  1.590E-12
3051.600  2.126E-12
3051.800  3.586E-12
3052.000  3.937E-12
3052.200  4.693E-12
3052.400  5.010E-12
3052.600  5.147E-12
3052.800  4.489E-12
3053.000  4.562E-12
3053.200  4.831E-12
3053.400  4.946E-12
3053.600  4.003E-12
3053.800  3.450E-12
3054.000  3.203E-12
3054.200  1.931E-12
3054.400  1.814E-12
3054.600  2.033E-12
3054.800  1.950E-12
3055.000  1.488E-12
3055.200  2.321E-12
3055.400  2.624E-12
3055.600  3.323E-12
3055.800  3.185E-12
3056.000  2.949E-12
3056.200  3.183E-12
3056.400  3.477E-12
3056.600  3.892E-12
3056.800  3.395E-12
3057.000  2.673E-12
3057.200  2.825E-12
3057.400  2.480E-12
3057.600  2.450E-12
3057.800  2.349E-12
3058.000  1.455E-12
3058.200  6.416E-13
3058.400  1.370E-12
3058.600  1.686E-12
3058.800  1.751E-12
3059.000  1.781E-12
3059.200  1.614E-12
3059.400  1.228E-12
3059.600  6.921E-13
3059.800  3.778E-13
3060.000  8.881E-13
3060.200  1.097E-12
3060.400  1.492E-12
3060.600  2.461E-12
3060.800  2.640E-12
3061.000  2.461E-12
3061.200  2.373E-12
3061.400  2.528E-12
3061.600  2.468E-12
3061.800  3.644E-12
3062.000  3.926E-12
3062.200  3.858E-12
3062.400  2.595E-12
3062.600  2.250E-12
3062.800  2.483E-12
3063.000  3.454E-12
3063.200  3.759E-12
3063.400  4.050E-12
3063.600  4.003E-12
3063.800  3.657E-12
3064.000  3.489E-12
3064.200  2.505E-12
3064.400  1.462E-12
3064.600  1.665E-12
3064.800  1.624E-12
3065.000  1.329E-12
3065.200  1.263E-12
3065.400  1.709E-12
3065.600  1.669E-12
3065.800  2.527E-12
3066.000  3.747E-12
3066.200  4.512E-12
3066.400  4.423E-12
3066.600  3.106E-12
3066.800  1.485E-12
3067.000  1.216E-12
3067.200  2.138E-12
3067.400  2.864E-12
3067.600  2.738E-12
3067.800  1.504E-12
3068.000  1.472E-12
3068.200  1.859E-12
3068.400  1.681E-12
3068.600  1.830E-12
3068.800  1.771E-12
3069.000  2.519E-12
3069.200  2.444E-12
3069.400  2.279E-12
3069.600  3.264E-12
3069.800  3.169E-12
3070.000  3.772E-12
3070.200  3.856E-12
3070.400  3.919E-12
3070.600  3.862E-12
