#FILENAME= 'h_hr-1886_uvsum_1x_52955-56934_etc.dat' / name of file
#                                                   
#FILETYPE= 'ETC'                / type of data found in data file
#TELESCOP= 'HST'                / telescope used to acquire data
#INSTRUME= 'STIS'               / instrument used to acquire data
#EQUINOX =               2000.0 / equinox of celestial coord. system
#                                                   
#             / TARGET INFORMATION                  
#                                                   
#CATNAME = 'HR-1886'            / ASTRAL object name
#RA_TARG =            83.754192 / right ascension of target (deg) (J2000)
#DEC_TARG=            -6.009280 / declination of target (deg) (J2000)
#                                                   
#WAVEMIN =                1163. / minimum wavelength (Angstroms)
#WAVEMAX =                3046. / maximum wavelength (Angstroms)
#                                                   
###################################################################
#                                                                 #
#   !!!!WARNING!!!!  This is a heavily processed spectrum         #
#   specifically for use with an Exposure Time Calculator.        #
# --------------------------------------------------------------  #
#   ** IT IS NOT SUITABLE FOR SCIENTIFIC ANALYSIS **              #
# --------------------------------------------------------------  #
#   See:                                                          #
#                                                                 #
# http://casa.colorado.edu/~ayres/StarCAT/ETC_spex_summary.txt  #
#                                                                 #
#   for cautions and limitations concerning the ETC spectra.      #
#                                                                 #
###################################################################
#                                                          
# Column 1:  WAVELENGTH    (Angstroms)              (F8.3) 
# Column 2:  FLUX          (erg/cm**2/s/Angstrom)  (E11.3)
#                                        
#NPTS    =                 9412 / Number of wavelength-flux entries
#                                                          
1163.600  1.562E-09
1163.800  1.647E-09
1164.000  1.627E-09
1164.200  1.436E-09
1164.400  1.516E-09
1164.600  1.537E-09
1164.800  1.443E-09
1165.000  1.445E-09
1165.200  1.531E-09
1165.400  1.556E-09
1165.600  1.674E-09
1165.800  1.301E-09
1166.000  1.537E-09
1166.200  1.537E-09
1166.400  1.549E-09
1166.600  1.447E-09
1166.800  1.483E-09
1167.000  1.472E-09
1167.200  1.358E-09
1167.400  1.546E-09
1167.600  1.560E-09
1167.800  1.279E-09
1168.000  1.512E-09
1168.200  1.346E-09
1168.400  1.543E-09
1168.600  1.580E-09
1168.800  1.511E-09
1169.000  1.470E-09
1169.200  1.271E-09
1169.400  1.434E-09
1169.600  1.268E-09
1169.800  1.267E-09
1170.000  1.307E-09
1170.200  1.189E-09
1170.400  1.411E-09
1170.600  1.352E-09
1170.800  1.373E-09
1171.000  1.396E-09
1171.200  1.072E-09
1171.400  1.401E-09
1171.600  1.385E-09
1171.800  1.304E-09
1172.000  1.409E-09
1172.200  1.230E-09
1172.400  1.238E-09
1172.600  9.391E-10
1172.800  1.232E-09
1173.000  1.213E-09
1173.200  1.179E-09
1173.400  1.125E-09
1173.600  1.113E-09
1173.800  1.043E-09
1174.000  9.756E-10
1174.200  8.833E-10
1174.400  7.308E-10
1174.600  4.899E-10
1174.800  4.520E-10
1175.000  1.912E-10
1175.200  1.850E-10
1175.400  1.408E-10
1175.600  1.689E-10
1175.800  4.875E-11
1176.000  1.102E-10
1176.200  1.933E-10
1176.400  1.928E-10
1176.600  3.046E-10
1176.800  5.262E-10
1177.000  5.800E-10
1177.200  8.625E-10
1177.400  8.730E-10
1177.600  9.008E-10
1177.800  1.000E-09
1178.000  1.039E-09
1178.200  1.216E-09
1178.400  1.220E-09
1178.600  1.245E-09
1178.800  1.298E-09
1179.000  1.302E-09
1179.200  1.247E-09
1179.400  1.197E-09
1179.600  1.148E-09
1179.800  1.397E-09
1180.000  1.193E-09
1180.200  1.296E-09
1180.400  1.221E-09
1180.600  1.289E-09
1180.800  1.181E-09
1181.000  1.258E-09
1181.200  1.316E-09
1181.400  1.354E-09
1181.600  1.406E-09
1181.800  1.403E-09
1182.000  1.369E-09
1182.200  1.355E-09
1182.400  1.548E-09
1182.600  1.512E-09
1182.800  1.239E-09
1183.000  1.254E-09
1183.200  1.290E-09
1183.400  1.305E-09
1183.600  1.418E-09
1183.800  1.395E-09
1184.000  1.023E-09
1184.200  1.367E-09
1184.400  1.410E-09
1184.600  1.362E-09
1184.800  1.347E-09
1185.000  1.430E-09
1185.200  1.438E-09
1185.400  1.350E-09
1185.600  1.400E-09
1185.800  1.140E-09
1186.000  1.518E-09
1186.200  1.417E-09
1186.400  1.306E-09
1186.600  1.507E-09
1186.800  1.416E-09
1187.000  1.470E-09
1187.200  1.423E-09
1187.400  1.448E-09
1187.600  1.217E-09
1187.800  1.264E-09
1188.000  1.328E-09
1188.200  1.490E-09
1188.400  1.506E-09
1188.600  1.289E-09
1188.800  1.485E-09
1189.000  1.461E-09
1189.200  1.096E-09
1189.400  1.433E-09
1189.600  1.491E-09
1189.800  1.476E-09
1190.000  1.479E-09
1190.200  1.106E-09
1190.400  4.793E-10
1190.600  1.077E-09
1190.800  1.452E-09
1191.000  1.452E-09
1191.200  1.452E-09
1191.400  1.369E-09
1191.600  1.441E-09
1191.800  1.268E-09
1192.000  1.263E-09
1192.200  1.297E-09
1192.400  1.231E-09
1192.600  1.231E-09
1192.800  1.158E-09
1193.000  1.111E-09
1193.200  9.788E-10
1193.400  8.215E-10
1193.600  1.196E-09
1193.800  1.475E-09
1194.000  1.490E-09
1194.200  1.022E-09
1194.400  1.384E-09
1194.600  1.041E-09
1194.800  1.302E-09
1195.000  1.242E-09
1195.200  1.277E-09
1195.400  1.160E-09
1195.600  1.345E-09
1195.800  1.391E-09
1196.000  1.390E-09
1196.200  1.427E-09
1196.400  1.452E-09
1196.600  1.321E-09
1196.800  1.314E-09
1197.000  1.432E-09
1197.200  1.202E-09
1197.400  1.046E-09
1197.600  1.362E-09
1197.800  1.415E-09
1198.000  1.265E-09
1198.200  1.158E-09
1198.400  1.117E-09
1198.600  1.154E-09
1198.800  1.159E-09
1199.000  1.257E-09
1199.200  1.205E-09
1199.400  9.937E-10
1199.600  9.731E-10
1199.800  1.322E-09
1200.000  1.322E-09
1200.200  1.230E-09
1200.400  1.403E-09
1200.600  1.402E-09
1200.800  7.654E-10
1201.000  1.083E-09
1201.200  1.300E-09
1201.400  1.232E-09
1201.600  1.248E-09
1201.800  1.307E-09
1202.000  1.181E-09
1202.200  1.143E-09
1202.400  1.176E-09
1202.600  1.246E-09
1202.800  1.356E-09
1203.000  1.371E-09
1203.200  1.192E-09
1203.400  1.159E-09
1203.600  1.176E-09
1203.800  1.184E-09
1204.000  1.112E-09
1204.200  1.241E-09
1204.400  1.165E-09
1204.600  9.972E-10
1204.800  9.993E-10
1205.000  1.019E-09
1205.200  7.881E-10
1205.400  8.250E-10
1205.600  7.013E-10
1205.800  6.304E-10
1206.000  3.428E-10
1206.200  2.606E-11
1206.400  3.564E-12
1206.600  3.514E-12
1206.800  4.437E-11
1207.000  1.392E-10
1207.200  3.052E-10
1207.400  4.778E-10
1207.600  4.930E-10
1207.800  6.698E-10
1208.000  8.147E-10
1208.200  8.408E-10
1208.400  8.665E-10
1208.600  8.647E-10
1208.800  9.193E-10
1209.000  8.896E-10
1209.200  9.907E-10
1209.400  9.343E-10
1209.600  8.926E-10
1209.800  9.180E-10
1210.000  9.680E-10
1210.200  8.869E-10
1210.400  9.665E-10
1210.600  6.895E-10
1210.800  7.910E-10
1211.000  9.207E-10
1211.200  8.221E-10
1211.400  8.635E-10
1211.600  7.579E-10
1211.800  7.442E-10
1212.000  5.816E-10
1212.200  6.034E-10
1212.400  6.019E-10
1212.600  4.990E-10
1212.800  4.516E-10
1213.000  4.256E-10
1213.200  3.446E-10
1213.400  2.882E-10
1213.600  2.219E-10
1213.800  1.540E-10
1214.000  9.632E-11
1214.200  6.032E-11
1214.400  2.078E-11
1214.600  2.160E-12
1214.800  2.154E-12
1215.000  2.150E-12
1215.200  2.147E-12
1215.400  2.144E-12
1215.600  2.143E-12
1215.800  2.142E-12
1216.000  2.141E-12
1216.200  2.142E-12
1216.400  2.143E-12
1216.600  2.145E-12
1216.800  2.147E-12
1217.000  2.150E-12
1217.200  2.739E-11
1217.400  5.858E-11
1217.600  1.103E-10
1217.800  1.694E-10
1218.000  2.370E-10
1218.200  3.127E-10
1218.400  3.478E-10
1218.600  3.824E-10
1218.800  4.924E-10
1219.000  5.875E-10
1219.200  5.845E-10
1219.400  6.620E-10
1219.600  6.902E-10
1219.800  7.360E-10
1220.000  7.522E-10
1220.200  7.200E-10
1220.400  8.255E-10
1220.600  8.847E-10
1220.800  9.732E-10
1221.000  9.831E-10
1221.200  1.037E-09
1221.400  1.114E-09
1221.600  1.085E-09
1221.800  1.093E-09
1222.000  9.551E-10
1222.200  1.058E-09
1222.400  1.100E-09
1222.600  1.080E-09
1222.800  1.062E-09
1223.000  1.038E-09
1223.200  1.164E-09
1223.400  1.253E-09
1223.600  1.287E-09
1223.800  1.231E-09
1224.000  1.170E-09
1224.200  1.192E-09
1224.400  1.281E-09
1224.600  1.277E-09
1224.800  1.357E-09
1225.000  1.284E-09
1225.200  1.224E-09
1225.400  1.226E-09
1225.600  1.195E-09
1225.800  9.469E-10
1226.000  1.292E-09
1226.200  1.360E-09
1226.400  1.347E-09
1226.600  1.347E-09
1226.800  1.102E-09
1227.000  8.727E-10
1227.200  1.168E-09
1227.400  1.270E-09
1227.600  1.092E-09
1227.800  1.178E-09
1228.000  1.258E-09
1228.200  1.295E-09
1228.400  1.123E-09
1228.600  1.132E-09
1228.800  1.044E-09
1229.000  1.333E-09
1229.200  1.131E-09
1229.400  1.103E-09
1229.600  1.158E-09
1229.800  1.332E-09
1230.000  9.181E-10
1230.200  1.011E-09
1230.400  1.046E-09
1230.600  1.104E-09
1230.800  1.291E-09
1231.000  1.278E-09
1231.200  1.317E-09
1231.400  1.402E-09
1231.600  1.306E-09
1231.800  1.307E-09
1232.000  1.410E-09
1232.200  1.410E-09
1232.400  1.353E-09
1232.600  1.264E-09
1232.800  1.241E-09
1233.000  1.293E-09
1233.200  1.318E-09
1233.400  1.298E-09
1233.600  1.250E-09
1233.800  1.315E-09
1234.000  1.241E-09
1234.200  1.324E-09
1234.400  1.263E-09
1234.600  1.263E-09
1234.800  1.268E-09
1235.000  1.364E-09
1235.200  1.334E-09
1235.400  1.393E-09
1235.600  1.186E-09
1235.800  1.304E-09
1236.000  1.245E-09
1236.200  1.255E-09
1236.400  1.239E-09
1236.600  1.228E-09
1236.800  1.213E-09
1237.000  1.328E-09
1237.200  1.336E-09
1237.400  1.340E-09
1237.600  1.365E-09
1237.800  1.314E-09
1238.000  1.395E-09
1238.200  1.397E-09
1238.400  1.249E-09
1238.600  1.093E-09
1238.800  1.278E-09
1239.000  1.171E-09
1239.200  1.324E-09
1239.400  1.336E-09
1239.600  1.351E-09
1239.800  1.335E-09
1240.000  1.264E-09
1240.200  1.354E-09
1240.400  1.260E-09
1240.600  1.332E-09
1240.800  1.187E-09
1241.000  1.211E-09
1241.200  1.328E-09
1241.400  1.399E-09
1241.600  1.395E-09
1241.800  1.328E-09
1242.000  1.364E-09
1242.200  1.354E-09
1242.400  1.217E-09
1242.600  1.348E-09
1242.800  1.351E-09
1243.000  1.219E-09
1243.200  1.163E-09
1243.400  1.376E-09
1243.600  1.376E-09
1243.800  1.188E-09
1244.000  1.392E-09
1244.200  1.380E-09
1244.400  1.335E-09
1244.600  1.285E-09
1244.800  1.306E-09
1245.000  1.360E-09
1245.200  1.329E-09
1245.400  1.272E-09
1245.600  1.319E-09
1245.800  1.275E-09
1246.000  1.258E-09
1246.200  1.296E-09
1246.400  1.261E-09
1246.600  1.185E-09
1246.800  1.152E-09
1247.000  1.076E-09
1247.200  8.810E-10
1247.400  6.549E-10
1247.600  6.132E-10
1247.800  8.475E-10
1248.000  1.161E-09
1248.200  1.179E-09
1248.400  1.185E-09
1248.600  1.226E-09
1248.800  1.301E-09
1249.000  1.302E-09
1249.200  1.278E-09
1249.400  1.310E-09
1249.600  1.335E-09
1249.800  1.266E-09
1250.000  1.177E-09
1250.200  1.160E-09
1250.400  1.135E-09
1250.600  1.042E-09
1250.800  1.324E-09
1251.000  1.333E-09
1251.200  1.232E-09
1251.400  1.262E-09
1251.600  1.226E-09
1251.800  1.281E-09
1252.000  1.264E-09
1252.200  1.268E-09
1252.400  1.290E-09
1252.600  1.176E-09
1252.800  1.177E-09
1253.000  1.312E-09
1253.200  1.304E-09
1253.400  1.184E-09
1253.600  1.305E-09
1253.800  1.227E-09
1254.000  1.130E-09
1254.200  1.197E-09
1254.400  1.356E-09
1254.600  1.233E-09
1254.800  1.218E-09
1255.000  1.207E-09
1255.200  1.171E-09
1255.400  1.271E-09
1255.600  1.230E-09
1255.800  1.213E-09
1256.000  1.325E-09
1256.200  1.332E-09
1256.400  1.285E-09
1256.600  1.211E-09
1256.800  1.093E-09
1257.000  1.371E-09
1257.200  1.362E-09
1257.400  1.209E-09
1257.600  1.227E-09
1257.800  1.226E-09
1258.000  1.342E-09
1258.200  1.338E-09
1258.400  1.262E-09
1258.600  1.262E-09
1258.800  1.193E-09
1259.000  1.301E-09
1259.200  1.205E-09
1259.400  1.277E-09
1259.600  7.474E-10
1259.800  1.199E-09
1260.000  1.215E-09
1260.200  1.070E-09
1260.400  8.690E-10
1260.600  8.858E-10
1260.800  1.273E-09
1261.000  1.279E-09
1261.200  1.262E-09
1261.400  1.299E-09
1261.600  1.291E-09
1261.800  1.213E-09
1262.000  1.279E-09
1262.200  1.314E-09
1262.400  1.204E-09
1262.600  1.167E-09
1262.800  1.273E-09
1263.000  1.206E-09
1263.200  1.214E-09
1263.400  1.253E-09
1263.600  1.273E-09
1263.800  1.288E-09
1264.000  1.356E-09
1264.200  1.365E-09
1264.400  1.338E-09
1264.600  1.330E-09
1264.800  1.203E-09
1265.000  1.194E-09
1265.200  1.109E-09
1265.400  1.196E-09
1265.600  1.232E-09
1265.800  1.215E-09
1266.000  1.057E-09
1266.200  1.069E-09
1266.400  1.182E-09
1266.600  1.186E-09
1266.800  1.299E-09
1267.000  1.251E-09
1267.200  1.204E-09
1267.400  1.151E-09
1267.600  1.182E-09
1267.800  1.193E-09
1268.000  1.193E-09
1268.200  1.221E-09
1268.400  1.196E-09
1268.600  1.181E-09
1268.800  1.274E-09
1269.000  1.205E-09
1269.200  6.745E-10
1269.400  1.214E-09
1269.600  1.240E-09
1269.800  1.210E-09
1270.000  1.204E-09
1270.200  1.286E-09
1270.400  1.240E-09
1270.600  1.243E-09
1270.800  1.205E-09
1271.000  1.223E-09
1271.200  1.170E-09
1271.400  1.273E-09
1271.600  1.186E-09
1271.800  1.198E-09
1272.000  1.249E-09
1272.200  1.206E-09
1272.400  1.280E-09
1272.600  1.248E-09
1272.800  1.173E-09
1273.000  1.295E-09
1273.200  1.281E-09
1273.400  1.217E-09
1273.600  1.245E-09
1273.800  1.227E-09
1274.000  1.155E-09
1274.200  1.288E-09
1274.400  1.303E-09
1274.600  1.258E-09
1274.800  1.281E-09
1275.000  1.250E-09
1275.200  9.485E-10
1275.400  1.249E-09
1275.600  1.276E-09
1275.800  1.252E-09
1276.000  1.271E-09
1276.200  1.168E-09
1276.400  1.162E-09
1276.600  1.300E-09
1276.800  1.232E-09
1277.000  1.135E-09
1277.200  1.232E-09
1277.400  1.136E-09
1277.600  1.185E-09
1277.800  1.213E-09
1278.000  1.234E-09
1278.200  1.162E-09
1278.400  1.208E-09
1278.600  1.270E-09
1278.800  1.256E-09
1279.000  1.050E-09
1279.200  1.204E-09
1279.400  1.206E-09
1279.600  1.241E-09
1279.800  1.238E-09
1280.000  1.211E-09
1280.200  1.182E-09
1280.400  1.171E-09
1280.600  1.223E-09
1280.800  1.230E-09
1281.000  1.199E-09
1281.200  1.231E-09
1281.400  1.221E-09
1281.600  1.206E-09
1281.800  1.256E-09
1282.000  1.266E-09
1282.200  1.167E-09
1282.400  1.204E-09
1282.600  1.150E-09
1282.800  1.149E-09
1283.000  1.214E-09
1283.200  1.182E-09
1283.400  1.236E-09
1283.600  1.223E-09
1283.800  1.178E-09
1284.000  1.177E-09
1284.200  1.179E-09
1284.400  1.178E-09
1284.600  1.226E-09
1284.800  1.278E-09
1285.000  1.177E-09
1285.200  1.241E-09
1285.400  1.255E-09
1285.600  1.233E-09
1285.800  1.231E-09
1286.000  1.114E-09
1286.200  1.093E-09
1286.400  1.007E-09
1286.600  1.167E-09
1286.800  1.110E-09
1287.000  1.219E-09
1287.200  1.130E-09
1287.400  1.075E-09
1287.600  1.117E-09
1287.800  1.200E-09
1288.000  1.177E-09
1288.200  1.253E-09
1288.400  1.140E-09
1288.600  1.183E-09
1288.800  1.180E-09
1289.000  1.224E-09
1289.200  1.205E-09
1289.400  1.181E-09
1289.600  1.196E-09
1289.800  1.211E-09
1290.000  1.157E-09
1290.200  1.074E-09
1290.400  1.236E-09
1290.600  1.215E-09
1290.800  1.251E-09
1291.000  1.234E-09
1291.200  1.230E-09
1291.400  1.081E-09
1291.600  1.173E-09
1291.800  9.042E-10
1292.000  1.215E-09
1292.200  1.231E-09
1292.400  1.207E-09
1292.600  1.155E-09
1292.800  1.212E-09
1293.000  1.218E-09
1293.200  1.203E-09
1293.400  9.710E-10
1293.600  1.114E-09
1293.800  1.077E-09
1294.000  1.201E-09
1294.200  1.200E-09
1294.400  1.118E-09
1294.600  8.323E-10
1294.800  8.107E-10
1295.000  1.150E-09
1295.200  1.178E-09
1295.400  1.176E-09
1295.600  1.145E-09
1295.800  1.137E-09
1296.000  1.119E-09
1296.200  1.158E-09
1296.400  9.286E-10
1296.600  7.787E-10
1296.800  6.410E-10
1297.000  9.834E-10
1297.200  1.026E-09
1297.400  1.154E-09
1297.600  1.105E-09
1297.800  1.160E-09
1298.000  1.160E-09
1298.200  9.799E-10
1298.400  1.069E-09
1298.600  9.995E-10
1298.800  6.366E-10
1299.000  3.449E-10
1299.200  6.032E-10
1299.400  8.601E-10
1299.600  9.476E-10
1299.800  1.019E-09
1300.000  1.108E-09
1300.200  1.129E-09
1300.400  1.143E-09
1300.600  1.076E-09
1300.800  1.071E-09
1301.000  9.370E-10
1301.200  8.540E-10
1301.400  9.583E-10
1301.600  1.057E-09
1301.800  1.070E-09
1302.000  1.116E-09
1302.200  1.095E-09
1302.400  1.178E-09
1302.600  1.165E-09
1302.800  1.177E-09
1303.000  1.113E-09
1303.200  1.048E-09
1303.400  6.900E-10
1303.600  9.109E-10
1303.800  1.052E-09
1304.000  1.104E-09
1304.200  1.141E-09
1304.400  8.303E-10
1304.600  8.723E-10
1304.800  1.042E-09
1305.000  9.688E-10
1305.200  1.084E-09
1305.400  9.465E-10
1305.600  1.030E-09
1305.800  1.099E-09
1306.000  1.104E-09
1306.200  1.155E-09
1306.400  1.153E-09
1306.600  1.142E-09
1306.800  1.086E-09
1307.000  1.218E-09
1307.200  1.204E-09
1307.400  1.140E-09
1307.600  1.176E-09
1307.800  1.182E-09
1308.000  1.192E-09
1308.200  1.177E-09
1308.400  1.196E-09
1308.600  1.216E-09
1308.800  1.188E-09
1309.000  1.159E-09
1309.200  1.179E-09
1309.400  9.907E-10
1309.600  1.046E-09
1309.800  1.119E-09
1310.000  1.211E-09
1310.200  1.213E-09
1310.400  1.211E-09
1310.600  1.186E-09
1310.800  1.223E-09
1311.000  1.207E-09
1311.200  1.212E-09
1311.400  1.185E-09
1311.600  1.109E-09
1311.800  1.194E-09
1312.000  1.201E-09
1312.200  1.183E-09
1312.400  1.197E-09
1312.600  1.132E-09
1312.800  1.143E-09
1313.000  1.185E-09
1313.200  1.150E-09
1313.400  1.200E-09
1313.600  1.162E-09
1313.800  1.159E-09
1314.000  1.173E-09
1314.200  1.173E-09
1314.400  1.149E-09
1314.600  1.166E-09
1314.800  1.058E-09
1315.000  1.119E-09
1315.200  1.086E-09
1315.400  1.083E-09
1315.600  1.078E-09
1315.800  1.117E-09
1316.000  1.152E-09
1316.200  1.149E-09
1316.400  1.062E-09
1316.600  1.185E-09
1316.800  1.187E-09
1317.000  1.155E-09
1317.200  1.125E-09
1317.400  1.119E-09
1317.600  1.120E-09
1317.800  1.102E-09
1318.000  1.114E-09
1318.200  1.166E-09
1318.400  1.033E-09
1318.600  1.138E-09
1318.800  1.152E-09
1319.000  1.201E-09
1319.200  1.195E-09
1319.400  1.065E-09
1319.600  1.167E-09
1319.800  1.136E-09
1320.000  1.136E-09
1320.200  1.153E-09
1320.400  1.151E-09
1320.600  1.133E-09
1320.800  1.110E-09
1321.000  9.893E-10
1321.200  1.058E-09
1321.400  1.035E-09
1321.600  1.150E-09
1321.800  1.147E-09
1322.000  1.109E-09
1322.200  1.167E-09
1322.400  1.125E-09
1322.600  1.114E-09
1322.800  1.160E-09
1323.000  1.156E-09
1323.200  1.127E-09
1323.400  1.155E-09
1323.600  1.163E-09
1323.800  1.151E-09
1324.000  8.436E-10
1324.200  1.051E-09
1324.400  1.088E-09
1324.600  1.141E-09
1324.800  1.124E-09
1325.000  8.899E-10
1325.200  1.119E-09
1325.400  1.120E-09
1325.600  1.138E-09
1325.800  1.114E-09
1326.000  1.067E-09
1326.200  1.119E-09
1326.400  1.119E-09
1326.600  1.130E-09
1326.800  1.097E-09
1327.000  1.104E-09
1327.200  1.096E-09
1327.400  1.109E-09
1327.600  1.124E-09
1327.800  1.069E-09
1328.000  1.115E-09
1328.200  1.039E-09
1328.400  1.084E-09
1328.600  9.718E-10
1328.800  9.758E-10
1329.000  1.073E-09
1329.200  1.052E-09
1329.400  1.047E-09
1329.600  1.125E-09
1329.800  1.089E-09
1330.000  8.696E-10
1330.200  1.011E-09
1330.400  9.549E-10
1330.600  1.116E-09
1330.800  1.113E-09
1331.000  1.127E-09
1331.200  1.067E-09
1331.400  1.062E-09
1331.600  1.052E-09
1331.800  1.092E-09
1332.000  1.095E-09
1332.200  1.110E-09
1332.400  1.129E-09
1332.600  1.085E-09
1332.800  1.072E-09
1333.000  1.062E-09
1333.200  1.125E-09
1333.400  1.090E-09
1333.600  1.122E-09
1333.800  1.081E-09
1334.000  1.102E-09
1334.200  5.277E-10
1334.400  2.204E-10
1334.600  1.606E-11
1334.800  8.432E-10
1335.000  9.053E-10
1335.200  9.261E-10
1335.400  9.755E-10
1335.600  9.161E-10
1335.800  1.988E-10
1336.000  9.789E-10
1336.200  9.871E-10
1336.400  1.096E-09
1336.600  1.118E-09
1336.800  1.047E-09
1337.000  1.093E-09
1337.200  1.145E-09
1337.400  1.146E-09
1337.600  1.099E-09
1337.800  1.095E-09
1338.000  1.055E-09
1338.200  1.004E-09
1338.400  1.093E-09
1338.600  1.110E-09
1338.800  9.894E-10
1339.000  1.064E-09
1339.200  1.008E-09
1339.400  1.140E-09
1339.600  1.133E-09
1339.800  1.050E-09
1340.000  1.132E-09
1340.200  1.132E-09
1340.400  1.006E-09
1340.600  1.101E-09
1340.800  1.030E-09
1341.000  1.082E-09
1341.200  1.082E-09
1341.400  1.005E-09
1341.600  8.339E-10
1341.800  1.092E-09
1342.000  1.093E-09
1342.200  1.063E-09
1342.400  9.700E-10
1342.600  9.822E-10
1342.800  1.041E-09
1343.000  1.082E-09
1343.200  1.022E-09
1343.400  5.152E-10
1343.600  7.953E-10
1343.800  1.027E-09
1344.000  1.067E-09
1344.200  1.041E-09
1344.400  1.031E-09
1344.600  1.073E-09
1344.800  1.094E-09
1345.000  8.964E-10
1345.200  1.020E-09
1345.400  1.032E-09
1345.600  1.083E-09
1345.800  9.959E-10
1346.000  1.061E-09
1346.200  1.017E-09
1346.400  1.053E-09
1346.600  9.294E-10
1346.800  9.532E-10
1347.000  9.895E-10
1347.200  1.001E-09
1347.400  9.594E-10
1347.600  9.904E-10
1347.800  9.654E-10
1348.000  9.347E-10
1348.200  9.643E-10
1348.400  1.032E-09
1348.600  1.020E-09
1348.800  9.633E-10
1349.000  9.794E-10
1349.200  9.771E-10
1349.400  9.934E-10
1349.600  9.911E-10
1349.800  1.055E-09
1350.000  1.055E-09
1350.200  1.021E-09
1350.400  1.026E-09
1350.600  1.004E-09
1350.800  1.003E-09
1351.000  1.057E-09
1351.200  9.939E-10
1351.400  9.228E-10
1351.600  9.591E-10
1351.800  9.891E-10
1352.000  1.006E-09
1352.200  9.790E-10
1352.400  9.942E-10
1352.600  1.007E-09
1352.800  8.921E-10
1353.000  8.635E-10
1353.200  9.840E-10
1353.400  1.014E-09
1353.600  9.925E-10
1353.800  9.880E-10
1354.000  9.841E-10
1354.200  9.948E-10
1354.400  9.855E-10
1354.600  1.046E-09
1354.800  1.065E-09
1355.000  1.051E-09
1355.200  1.101E-09
1355.400  1.094E-09
1355.600  9.079E-10
1355.800  1.099E-09
1356.000  1.101E-09
1356.200  1.037E-09
1356.400  1.076E-09
1356.600  1.037E-09
1356.800  1.027E-09
1357.000  1.024E-09
1357.200  8.836E-10
1357.400  1.069E-09
1357.600  1.116E-09
1357.800  1.111E-09
1358.000  9.430E-10
1358.200  1.031E-09
1358.400  1.043E-09
1358.600  1.044E-09
1358.800  1.070E-09
1359.000  1.086E-09
1359.200  1.080E-09
1359.400  1.030E-09
1359.600  1.062E-09
1359.800  1.073E-09
1360.000  1.084E-09
1360.200  1.114E-09
1360.400  1.105E-09
1360.600  1.137E-09
1360.800  1.110E-09
1361.000  1.087E-09
1361.200  9.750E-10
1361.400  1.030E-09
1361.600  1.069E-09
1361.800  9.457E-10
1362.000  1.093E-09
1362.200  1.065E-09
1362.400  1.068E-09
1362.600  9.937E-10
1362.800  1.102E-09
1363.000  1.020E-09
1363.200  1.033E-09
1363.400  1.032E-09
1363.600  9.081E-10
1363.800  1.121E-09
1364.000  1.100E-09
1364.200  1.088E-09
1364.400  1.077E-09
1364.600  1.071E-09
1364.800  1.040E-09
1365.000  9.766E-10
1365.200  1.035E-09
1365.400  9.127E-10
1365.600  9.991E-10
1365.800  1.014E-09
1366.000  1.010E-09
1366.200  1.009E-09
1366.400  1.036E-09
1366.600  1.024E-09
1366.800  9.450E-10
1367.000  9.361E-10
1367.200  8.951E-10
1367.400  1.042E-09
1367.600  9.988E-10
1367.800  1.046E-09
1368.000  1.071E-09
1368.200  1.069E-09
1368.400  1.011E-09
1368.600  1.019E-09
1368.800  1.077E-09
1369.000  9.320E-10
1369.200  1.058E-09
1369.400  9.907E-10
1369.600  8.448E-10
1369.800  1.001E-09
1370.000  1.075E-09
1370.200  1.065E-09
1370.400  1.072E-09
1370.600  1.069E-09
1370.800  1.086E-09
1371.000  1.083E-09
1371.200  1.032E-09
1371.400  1.031E-09
1371.600  9.464E-10
1371.800  7.944E-10
1372.000  1.058E-09
1372.200  1.015E-09
1372.400  1.078E-09
1372.600  1.053E-09
1372.800  1.022E-09
1373.000  1.052E-09
1373.200  7.728E-10
1373.400  1.031E-09
1373.600  1.020E-09
1373.800  9.723E-10
1374.000  1.084E-09
1374.200  9.844E-10
1374.400  1.065E-09
1374.600  1.038E-09
1374.800  1.044E-09
1375.000  9.966E-10
1375.200  9.922E-10
1375.400  9.748E-10
1375.600  1.001E-09
1375.800  1.006E-09
1376.000  1.014E-09
1376.200  1.019E-09
1376.400  9.126E-10
1376.600  1.030E-09
1376.800  1.047E-09
1377.000  9.909E-10
1377.200  8.929E-10
1377.400  8.851E-10
1377.600  9.581E-10
1377.800  9.872E-10
1378.000  9.576E-10
1378.200  9.955E-10
1378.400  9.922E-10
1378.600  1.036E-09
1378.800  9.820E-10
1379.000  8.824E-10
1379.200  9.483E-10
1379.400  9.646E-10
1379.600  9.466E-10
1379.800  9.036E-10
1380.000  1.045E-09
1380.200  9.783E-10
1380.400  9.647E-10
1380.600  8.794E-10
1380.800  8.764E-10
1381.000  9.513E-10
1381.200  1.005E-09
1381.400  1.039E-09
1381.600  9.587E-10
1381.800  8.583E-10
1382.000  1.005E-09
1382.200  1.005E-09
1382.400  9.717E-10
1382.600  9.278E-10
1382.800  9.735E-10
1383.000  8.788E-10
1383.200  9.438E-10
1383.400  9.932E-10
1383.600  1.006E-09
1383.800  9.144E-10
1384.000  8.704E-10
1384.200  8.774E-10
1384.400  8.763E-10
1384.600  8.785E-10
1384.800  8.625E-10
1385.000  9.465E-10
1385.200  9.648E-10
1385.400  9.391E-10
1385.600  9.391E-10
1385.800  9.437E-10
1386.000  9.450E-10
1386.200  9.094E-10
1386.400  8.546E-10
1386.600  8.803E-10
1386.800  8.433E-10
1387.000  9.318E-10
1387.200  9.348E-10
1387.400  8.951E-10
1387.600  7.583E-10
1387.800  8.134E-10
1388.000  7.620E-10
1388.200  9.273E-10
1388.400  9.306E-10
1388.600  9.425E-10
1388.800  9.490E-10
1389.000  9.467E-10
1389.200  9.218E-10
1389.400  8.903E-10
1389.600  9.326E-10
1389.800  8.854E-10
1390.000  8.750E-10
1390.200  8.731E-10
1390.400  8.039E-10
1390.600  8.356E-10
1390.800  7.993E-10
1391.000  8.027E-10
1391.200  7.891E-10
1391.400  7.264E-10
1391.600  6.855E-10
1391.800  5.906E-10
1392.000  6.259E-10
1392.200  6.322E-10
1392.400  5.797E-10
1392.600  4.854E-10
1392.800  4.948E-10
1393.000  4.422E-10
1393.200  3.820E-10
1393.400  3.079E-10
1393.600  2.365E-10
1393.800  1.241E-10
1394.000  1.410E-10
1394.200  2.484E-10
1394.400  3.531E-10
1394.600  4.397E-10
1394.800  4.643E-10
1395.000  5.716E-10
1395.200  5.979E-10
1395.400  6.045E-10
1395.600  7.134E-10
1395.800  7.284E-10
1396.000  7.295E-10
1396.200  6.690E-10
1396.400  7.427E-10
1396.600  7.793E-10
1396.800  7.870E-10
1397.000  7.753E-10
1397.200  6.791E-10
1397.400  6.768E-10
1397.600  8.543E-10
1397.800  8.250E-10
1398.000  8.250E-10
1398.200  7.998E-10
1398.400  8.359E-10
1398.600  8.746E-10
1398.800  8.751E-10
1399.000  7.779E-10
1399.200  8.812E-10
1399.400  8.553E-10
1399.600  8.800E-10
1399.800  7.463E-10
1400.000  8.509E-10
1400.200  8.139E-10
1400.400  7.703E-10
1400.600  8.021E-10
1400.800  7.676E-10
1401.000  8.145E-10
1401.200  7.630E-10
1401.400  7.368E-10
1401.600  7.322E-10
1401.800  6.857E-10
1402.000  5.861E-10
1402.200  5.285E-10
1402.400  4.111E-10
1402.600  3.328E-10
1402.800  1.766E-10
1403.000  1.854E-10
1403.200  3.242E-10
1403.400  4.594E-10
1403.600  5.365E-10
1403.800  6.185E-10
1404.000  6.532E-10
1404.200  7.326E-10
1404.400  7.422E-10
1404.600  7.655E-10
1404.800  7.712E-10
1405.000  7.145E-10
1405.200  8.125E-10
1405.400  7.930E-10
1405.600  8.446E-10
1405.800  7.807E-10
1406.000  8.322E-10
1406.200  8.050E-10
1406.400  8.503E-10
1406.600  8.926E-10
1406.800  9.056E-10
1407.000  8.816E-10
1407.200  8.986E-10
1407.400  8.882E-10
1407.600  9.100E-10
1407.800  8.778E-10
1408.000  7.423E-10
1408.200  6.775E-10
1408.400  8.251E-10
1408.600  8.571E-10
1408.800  8.976E-10
1409.000  8.459E-10
1409.200  8.719E-10
1409.400  8.627E-10
1409.600  7.750E-10
1409.800  7.765E-10
1410.000  7.041E-10
1410.200  7.487E-10
1410.400  8.418E-10
1410.600  8.730E-10
1410.800  9.603E-10
1411.000  9.620E-10
1411.200  8.290E-10
1411.400  8.812E-10
1411.600  8.638E-10
1411.800  9.036E-10
1412.000  8.906E-10
1412.200  7.924E-10
1412.400  8.224E-10
1412.600  9.241E-10
1412.800  9.457E-10
1413.000  7.893E-10
1413.200  8.082E-10
1413.400  9.253E-10
1413.600  9.529E-10
1413.800  8.748E-10
1414.000  8.743E-10
1414.200  8.654E-10
1414.400  8.501E-10
1414.600  8.510E-10
1414.800  7.769E-10
1415.000  7.428E-10
1415.200  8.354E-10
1415.400  8.913E-10
1415.600  8.913E-10
1415.800  7.676E-10
1416.000  8.175E-10
1416.200  7.934E-10
1416.400  8.057E-10
1416.600  8.166E-10
1416.800  8.076E-10
1417.000  8.640E-10
1417.200  6.300E-10
1417.400  4.905E-10
1417.600  7.436E-10
1417.800  6.909E-10
1418.000  8.096E-10
1418.200  8.096E-10
1418.400  7.240E-10
1418.600  7.494E-10
1418.800  7.048E-10
1419.000  7.522E-10
1419.200  7.373E-10
1419.400  8.203E-10
1419.600  7.417E-10
1419.800  8.609E-10
1420.000  8.438E-10
1420.200  7.323E-10
1420.400  8.058E-10
1420.600  8.455E-10
1420.800  8.919E-10
1421.000  9.176E-10
1421.200  8.980E-10
1421.400  7.783E-10
1421.600  9.025E-10
1421.800  8.004E-10
1422.000  9.026E-10
1422.200  8.307E-10
1422.400  8.453E-10
1422.600  7.808E-10
1422.800  8.861E-10
1423.000  7.935E-10
1423.200  8.627E-10
1423.400  8.655E-10
1423.600  8.622E-10
1423.800  8.949E-10
1424.000  7.990E-10
1424.200  8.876E-10
1424.400  8.080E-10
1424.600  8.366E-10
1424.800  8.505E-10
1425.000  9.056E-10
1425.200  8.850E-10
1425.400  9.297E-10
1425.600  8.864E-10
1425.800  8.860E-10
1426.000  7.743E-10
1426.200  7.471E-10
1426.400  7.195E-10
1426.600  6.886E-10
1426.800  8.180E-10
1427.000  7.919E-10
1427.200  7.687E-10
1427.400  7.559E-10
1427.600  6.791E-10
1427.800  7.460E-10
1428.000  7.014E-10
1428.200  7.478E-10
1428.400  8.328E-10
1428.600  7.719E-10
1428.800  8.183E-10
1429.000  7.672E-10
1429.200  7.887E-10
1429.400  8.810E-10
1429.600  8.981E-10
1429.800  9.399E-10
1430.000  9.338E-10
1430.200  8.878E-10
1430.400  8.029E-10
1430.600  6.627E-10
1430.800  7.840E-10
1431.000  7.396E-10
1431.200  7.621E-10
1431.400  8.345E-10
1431.600  7.378E-10
1431.800  7.911E-10
1432.000  8.207E-10
1432.200  8.022E-10
1432.400  8.869E-10
1432.600  8.864E-10
1432.800  8.987E-10
1433.000  8.912E-10
1433.200  8.973E-10
1433.400  7.806E-10
1433.600  7.479E-10
1433.800  6.805E-10
1434.000  8.382E-10
1434.200  8.094E-10
1434.400  6.541E-10
1434.600  9.082E-10
1434.800  9.210E-10
1435.000  8.643E-10
1435.200  8.003E-10
1435.400  7.966E-10
1435.600  8.005E-10
1435.800  7.678E-10
1436.000  7.049E-10
1436.200  7.947E-10
1436.400  8.936E-10
1436.600  8.438E-10
1436.800  7.678E-10
1437.000  8.505E-10
1437.200  8.290E-10
1437.400  8.154E-10
1437.600  7.982E-10
1437.800  8.687E-10
1438.000  8.595E-10
1438.200  8.057E-10
1438.400  7.935E-10
1438.600  8.888E-10
1438.800  7.973E-10
1439.000  8.198E-10
1439.200  8.194E-10
1439.400  8.138E-10
1439.600  7.913E-10
1439.800  8.213E-10
1440.000  7.634E-10
1440.200  8.678E-10
1440.400  8.753E-10
1440.600  8.226E-10
1440.800  8.595E-10
1441.000  7.914E-10
1441.200  8.069E-10
1441.400  8.187E-10
1441.600  8.560E-10
1441.800  7.660E-10
1442.000  8.356E-10
1442.200  7.059E-10
1442.400  8.311E-10
1442.600  8.175E-10
1442.800  8.615E-10
1443.000  8.686E-10
1443.200  8.533E-10
1443.400  8.392E-10
1443.600  8.392E-10
1443.800  8.991E-10
1444.000  9.318E-10
1444.200  8.552E-10
1444.400  8.771E-10
1444.600  8.630E-10
1444.800  8.205E-10
1445.000  7.840E-10
1445.200  6.970E-10
1445.400  8.605E-10
1445.600  8.297E-10
1445.800  8.929E-10
1446.000  8.920E-10
1446.200  7.322E-10
1446.400  8.231E-10
1446.600  7.530E-10
1446.800  7.988E-10
1447.000  8.256E-10
1447.200  8.538E-10
1447.400  8.337E-10
1447.600  8.692E-10
1447.800  7.720E-10
1448.000  8.167E-10
1448.200  8.167E-10
1448.400  8.882E-10
1448.600  8.875E-10
1448.800  8.581E-10
1449.000  8.288E-10
1449.200  8.407E-10
1449.400  8.964E-10
1449.600  8.852E-10
1449.800  8.199E-10
1450.000  7.611E-10
1450.200  8.485E-10
1450.400  7.738E-10
1450.600  8.150E-10
1450.800  8.268E-10
1451.000  8.201E-10
1451.200  8.882E-10
1451.400  8.308E-10
1451.600  7.211E-10
1451.800  8.366E-10
1452.000  7.818E-10
1452.200  8.555E-10
1452.400  7.816E-10
1452.600  6.691E-10
1452.800  8.791E-10
1453.000  8.426E-10
1453.200  8.457E-10
1453.400  8.765E-10
1453.600  8.142E-10
1453.800  8.408E-10
1454.000  7.864E-10
1454.200  7.763E-10
1454.400  7.449E-10
1454.600  8.061E-10
1454.800  8.099E-10
1455.000  7.965E-10
1455.200  8.046E-10
1455.400  8.443E-10
1455.600  8.244E-10
1455.800  7.812E-10
1456.000  8.517E-10
1456.200  9.438E-10
1456.400  8.741E-10
1456.600  6.658E-10
1456.800  6.739E-10
1457.000  8.983E-10
1457.200  8.983E-10
1457.400  8.163E-10
1457.600  7.845E-10
1457.800  8.768E-10
1458.000  9.030E-10
1458.200  9.105E-10
1458.400  8.675E-10
1458.600  7.644E-10
1458.800  8.802E-10
1459.000  8.316E-10
1459.200  9.128E-10
1459.400  8.228E-10
1459.600  8.654E-10
1459.800  8.204E-10
1460.000  7.558E-10
1460.200  7.360E-10
1460.400  6.845E-10
1460.600  7.034E-10
1460.800  7.815E-10
1461.000  8.022E-10
1461.200  8.081E-10
1461.400  7.871E-10
1461.600  8.144E-10
1461.800  8.010E-10
1462.000  7.321E-10
1462.200  8.147E-10
1462.400  7.645E-10
1462.600  8.379E-10
1462.800  8.731E-10
1463.000  8.808E-10
1463.200  8.261E-10
1463.400  7.879E-10
1463.600  8.492E-10
1463.800  8.290E-10
1464.000  8.288E-10
1464.200  8.182E-10
1464.400  7.782E-10
1464.600  8.537E-10
1464.800  8.416E-10
1465.000  7.601E-10
1465.200  7.589E-10
1465.400  7.349E-10
1465.600  8.597E-10
1465.800  6.912E-10
1466.000  7.415E-10
1466.200  7.681E-10
1466.400  7.528E-10
1466.600  6.842E-10
1466.800  7.781E-10
1467.000  7.000E-10
1467.200  6.825E-10
1467.400  6.334E-10
1467.600  6.691E-10
1467.800  7.634E-10
1468.000  8.138E-10
1468.200  7.743E-10
1468.400  8.486E-10
1468.600  8.203E-10
1468.800  8.675E-10
1469.000  8.409E-10
1469.200  7.787E-10
1469.400  7.612E-10
1469.600  8.431E-10
1469.800  8.031E-10
1470.000  7.368E-10
1470.200  7.975E-10
1470.400  8.178E-10
1470.600  7.665E-10
1470.800  7.148E-10
1471.000  9.253E-10
1471.200  8.608E-10
1471.400  8.335E-10
1471.600  8.271E-10
1471.800  8.484E-10
1472.000  8.874E-10
1472.200  7.935E-10
1472.400  8.176E-10
1472.600  7.516E-10
1472.800  8.183E-10
1473.000  8.658E-10
1473.200  7.661E-10
1473.400  6.369E-10
1473.600  7.052E-10
1473.800  8.266E-10
1474.000  7.873E-10
1474.200  8.299E-10
1474.400  7.567E-10
1474.600  6.922E-10
1474.800  7.418E-10
1475.000  8.687E-10
1475.200  8.687E-10
1475.400  8.082E-10
1475.600  7.564E-10
1475.800  7.540E-10
1476.000  7.522E-10
1476.200  7.579E-10
1476.400  7.582E-10
1476.600  7.743E-10
1476.800  7.000E-10
1477.000  6.752E-10
1477.200  6.983E-10
1477.400  7.904E-10
1477.600  7.303E-10
1477.800  7.056E-10
1478.000  7.810E-10
1478.200  6.993E-10
1478.400  6.852E-10
1478.600  7.701E-10
1478.800  8.308E-10
1479.000  7.406E-10
1479.200  8.353E-10
1479.400  8.313E-10
1479.600  8.211E-10
1479.800  7.812E-10
1480.000  8.205E-10
1480.200  8.011E-10
1480.400  8.163E-10
1480.600  8.210E-10
1480.800  8.432E-10
1481.000  7.589E-10
1481.200  7.481E-10
1481.400  7.182E-10
1481.600  7.272E-10
1481.800  8.075E-10
1482.000  6.949E-10
1482.200  7.970E-10
1482.400  7.032E-10
1482.600  8.359E-10
1482.800  7.705E-10
1483.000  7.875E-10
1483.200  7.428E-10
1483.400  6.725E-10
1483.600  7.480E-10
1483.800  8.066E-10
1484.000  8.203E-10
1484.200  7.904E-10
1484.400  6.295E-10
1484.600  7.157E-10
1484.800  7.999E-10
1485.000  7.897E-10
1485.200  7.919E-10
1485.400  8.023E-10
1485.600  8.072E-10
1485.800  8.313E-10
1486.000  7.894E-10
1486.200  7.599E-10
1486.400  8.300E-10
1486.600  8.300E-10
1486.800  8.342E-10
1487.000  7.846E-10
1487.200  8.472E-10
1487.400  8.780E-10
1487.600  7.796E-10
1487.800  8.207E-10
1488.000  7.328E-10
1488.200  7.690E-10
1488.400  8.289E-10
1488.600  8.629E-10
1488.800  8.609E-10
1489.000  7.601E-10
1489.200  7.878E-10
1489.400  8.104E-10
1489.600  8.064E-10
1489.800  7.517E-10
1490.000  7.965E-10
1490.200  8.105E-10
1490.400  7.898E-10
1490.600  8.358E-10
1490.800  7.963E-10
1491.000  7.565E-10
1491.200  6.710E-10
1491.400  8.476E-10
1491.600  8.462E-10
1491.800  8.425E-10
1492.000  7.171E-10
1492.200  7.651E-10
1492.400  8.333E-10
1492.600  8.500E-10
1492.800  6.946E-10
1493.000  7.982E-10
1493.200  6.973E-10
1493.400  6.491E-10
1493.600  7.573E-10
1493.800  5.790E-10
1494.000  8.169E-10
1494.200  7.766E-10
1494.400  6.663E-10
1494.600  6.471E-10
1494.800  8.076E-10
1495.000  8.144E-10
1495.200  5.686E-10
1495.400  8.149E-10
1495.600  8.102E-10
1495.800  7.873E-10
1496.000  7.198E-10
1496.200  8.034E-10
1496.400  7.784E-10
1496.600  7.784E-10
1496.800  7.584E-10
1497.000  6.764E-10
1497.200  7.180E-10
1497.400  6.343E-10
1497.600  7.252E-10
1497.800  7.844E-10
1498.000  7.259E-10
1498.200  7.897E-10
1498.400  7.920E-10
1498.600  7.631E-10
1498.800  7.463E-10
1499.000  5.284E-10
1499.200  7.233E-10
1499.400  7.129E-10
1499.600  6.446E-10
1499.800  7.332E-10
1500.000  7.721E-10
1500.200  6.627E-10
1500.400  5.068E-10
1500.600  7.234E-10
1500.800  7.447E-10
1501.000  7.656E-10
1501.200  7.219E-10
1501.400  6.415E-10
1501.600  7.959E-10
1501.800  7.947E-10
1502.000  6.311E-10
1502.200  7.252E-10
1502.400  6.255E-10
1502.600  7.920E-10
1502.800  7.678E-10
1503.000  6.979E-10
1503.200  7.393E-10
1503.400  7.049E-10
1503.600  7.190E-10
1503.800  6.771E-10
1504.000  7.514E-10
1504.200  6.215E-10
1504.400  6.358E-10
1504.600  7.680E-10
1504.800  6.973E-10
1505.000  6.503E-10
1505.200  6.892E-10
1505.400  5.995E-10
1505.600  7.803E-10
1505.800  8.030E-10
1506.000  6.113E-10
1506.200  6.606E-10
1506.400  7.713E-10
1506.600  7.596E-10
1506.800  8.084E-10
1507.000  7.482E-10
1507.200  7.509E-10
1507.400  7.711E-10
1507.600  7.593E-10
1507.800  7.944E-10
1508.000  7.884E-10
1508.200  7.821E-10
1508.400  8.435E-10
1508.600  8.009E-10
1508.800  8.359E-10
1509.000  6.695E-10
1509.200  7.053E-10
1509.400  7.228E-10
1509.600  7.936E-10
1509.800  8.038E-10
1510.000  6.914E-10
1510.200  6.417E-10
1510.400  7.666E-10
1510.600  7.666E-10
1510.800  6.841E-10
1511.000  6.400E-10
1511.200  6.625E-10
1511.400  4.637E-10
1511.600  6.823E-10
1511.800  7.806E-10
1512.000  8.010E-10
1512.200  6.321E-10
1512.400  5.031E-10
1512.600  5.717E-10
1512.800  6.998E-10
1513.000  4.879E-10
1513.200  6.618E-10
1513.400  6.596E-10
1513.600  6.789E-10
1513.800  8.038E-10
1514.000  7.783E-10
1514.200  7.319E-10
1514.400  7.125E-10
1514.600  7.331E-10
1514.800  7.729E-10
1515.000  7.892E-10
1515.200  7.425E-10
1515.400  7.760E-10
1515.600  5.663E-10
1515.800  6.712E-10
1516.000  6.235E-10
1516.200  6.059E-10
1516.400  6.620E-10
1516.600  8.003E-10
1516.800  6.306E-10
1517.000  6.366E-10
1517.200  6.022E-10
1517.400  6.787E-10
1517.600  6.935E-10
1517.800  5.681E-10
1518.000  6.459E-10
1518.200  7.146E-10
1518.400  7.974E-10
1518.600  8.169E-10
1518.800  7.792E-10
1519.000  5.916E-10
1519.200  6.213E-10
1519.400  7.031E-10
1519.600  5.984E-10
1519.800  7.408E-10
1520.000  7.510E-10
1520.200  6.281E-10
1520.400  7.282E-10
1520.600  7.400E-10
1520.800  6.841E-10
1521.000  7.326E-10
1521.200  7.499E-10
1521.400  7.338E-10
1521.600  7.095E-10
1521.800  7.059E-10
1522.000  7.050E-10
1522.200  8.318E-10
1522.400  8.027E-10
1522.600  7.627E-10
1522.800  7.582E-10
1523.000  8.000E-10
1523.200  8.027E-10
1523.400  7.440E-10
1523.600  7.695E-10
1523.800  7.445E-10
1524.000  6.647E-10
1524.200  7.204E-10
1524.400  7.211E-10
1524.600  7.031E-10
1524.800  5.286E-10
1525.000  5.548E-10
1525.200  6.047E-10
1525.400  5.983E-10
1525.600  7.462E-10
1525.800  5.855E-10
1526.000  7.258E-10
1526.200  6.168E-10
1526.400  6.709E-10
1526.600  6.034E-10
1526.800  1.168E-10
1527.000  5.574E-10
1527.200  4.001E-10
1527.400  4.929E-10
1527.600  7.460E-10
1527.800  7.479E-10
1528.000  7.300E-10
1528.200  7.300E-10
1528.400  7.276E-10
1528.600  6.231E-10
1528.800  7.161E-10
1529.000  7.138E-10
1529.200  7.410E-10
1529.400  8.080E-10
1529.600  7.697E-10
1529.800  5.409E-10
1530.000  5.982E-10
1530.200  5.319E-10
1530.400  4.410E-10
1530.600  7.368E-10
1530.800  7.447E-10
1531.000  7.149E-10
1531.200  6.545E-10
1531.400  6.318E-10
1531.600  4.906E-10
1531.800  4.508E-10
1532.000  6.116E-10
1532.200  6.693E-10
1532.400  6.949E-10
1532.600  6.499E-10
1532.800  5.340E-10
1533.000  5.771E-10
1533.200  5.288E-10
1533.400  5.553E-10
1533.600  5.542E-10
1533.800  7.509E-10
1534.000  7.207E-10
1534.200  4.918E-10
1534.400  5.781E-10
1534.600  5.540E-10
1534.800  7.123E-10
1535.000  6.506E-10
1535.200  6.930E-10
1535.400  6.989E-10
1535.600  6.156E-10
1535.800  6.010E-10
1536.000  5.657E-10
1536.200  6.806E-10
1536.400  6.609E-10
1536.600  5.383E-10
1536.800  5.764E-10
1537.000  7.334E-10
1537.200  7.440E-10
1537.400  6.589E-10
1537.600  3.735E-10
1537.800  6.159E-10
1538.000  5.052E-10
1538.200  6.570E-10
1538.400  4.981E-10
1538.600  5.784E-10
1538.800  6.318E-10
1539.000  6.087E-10
1539.200  5.946E-10
1539.400  6.568E-10
1539.600  5.989E-10
1539.800  6.783E-10
1540.000  6.681E-10
1540.200  5.144E-10
1540.400  6.662E-10
1540.600  6.708E-10
1540.800  6.151E-10
1541.000  5.930E-10
1541.200  5.769E-10
1541.400  5.870E-10
1541.600  5.889E-10
1541.800  7.068E-10
1542.000  5.073E-10
1542.200  5.784E-10
1542.400  7.095E-10
1542.600  7.087E-10
1542.800  4.883E-10
1543.000  6.037E-10
1543.200  6.553E-10
1543.400  6.699E-10
1543.600  5.976E-10
1543.800  6.733E-10
1544.000  6.896E-10
1544.200  5.933E-10
1544.400  5.658E-10
1544.600  5.943E-10
1544.800  6.240E-10
1545.000  6.485E-10
1545.200  6.244E-10
1545.400  5.839E-10
1545.600  6.806E-10
1545.800  7.212E-10
1546.000  6.423E-10
1546.200  6.303E-10
1546.400  4.375E-10
1546.600  4.418E-10
1546.800  5.494E-10
1547.000  4.903E-10
1547.200  6.303E-10
1547.400  6.358E-10
1547.600  5.498E-10
1547.800  4.405E-10
1548.000  4.371E-10
1548.200  3.784E-10
1548.400  4.286E-10
1548.600  5.618E-10
1548.800  5.777E-10
1549.000  6.039E-10
1549.200  6.142E-10
1549.400  5.197E-10
1549.600  5.733E-10
1549.800  5.367E-10
1550.000  6.428E-10
1550.200  5.383E-10
1550.400  5.281E-10
1550.600  5.031E-10
1550.800  5.052E-10
1551.000  4.468E-10
1551.200  4.959E-10
1551.400  5.832E-10
1551.600  5.524E-10
1551.800  5.524E-10
1552.000  6.847E-10
1552.200  6.181E-10
1552.400  5.348E-10
1552.600  5.023E-10
1552.800  5.597E-10
1553.000  6.311E-10
1553.200  4.474E-10
1553.400  5.710E-10
1553.600  5.881E-10
1553.800  6.081E-10
1554.000  6.015E-10
1554.200  6.564E-10
1554.400  6.978E-10
1554.600  6.993E-10
1554.800  6.458E-10
1555.000  6.509E-10
1555.200  5.679E-10
1555.400  5.426E-10
1555.600  5.969E-10
1555.800  5.322E-10
1556.000  4.998E-10
1556.200  5.414E-10
1556.400  7.011E-10
1556.600  5.042E-10
1556.800  7.168E-10
1557.000  5.408E-10
1557.200  7.003E-10
1557.400  5.221E-10
1557.600  5.205E-10
1557.800  6.491E-10
1558.000  6.531E-10
1558.200  7.486E-10
1558.400  7.267E-10
1558.600  6.236E-10
1558.800  6.390E-10
1559.000  5.759E-10
1559.200  4.543E-10
1559.400  6.584E-10
1559.600  5.594E-10
1559.800  5.714E-10
1560.000  6.969E-10
1560.200  6.359E-10
1560.400  5.242E-10
1560.600  5.753E-10
1560.800  6.229E-10
1561.000  6.125E-10
1561.200  6.380E-10
1561.400  5.387E-10
1561.600  6.871E-10
1561.800  6.853E-10
1562.000  5.679E-10
1562.200  6.983E-10
1562.400  6.493E-10
1562.600  6.273E-10
1562.800  4.099E-10
1563.000  6.597E-10
1563.200  6.872E-10
1563.400  4.746E-10
1563.600  6.942E-10
1563.800  5.636E-10
1564.000  6.892E-10
1564.200  6.845E-10
1564.400  5.296E-10
1564.600  5.718E-10
1564.800  5.266E-10
1565.000  6.910E-10
1565.200  6.650E-10
1565.400  4.169E-10
1565.600  5.044E-10
1565.800  7.269E-10
1566.000  6.989E-10
1566.200  7.489E-10
1566.400  6.915E-10
1566.600  5.925E-10
1566.800  6.523E-10
1567.000  5.887E-10
1567.200  7.105E-10
1567.400  6.893E-10
1567.600  7.087E-10
1567.800  5.957E-10
1568.000  5.658E-10
1568.200  6.582E-10
1568.400  6.286E-10
1568.600  7.004E-10
1568.800  5.797E-10
1569.000  5.709E-10
1569.200  5.683E-10
1569.400  5.929E-10
1569.600  5.856E-10
1569.800  5.423E-10
1570.000  6.958E-10
1570.200  5.745E-10
1570.400  6.498E-10
1570.600  5.723E-10
1570.800  6.061E-10
1571.000  5.602E-10
1571.200  4.932E-10
1571.400  5.760E-10
1571.600  6.015E-10
1571.800  6.148E-10
1572.000  7.052E-10
1572.200  6.943E-10
1572.400  6.336E-10
1572.600  5.896E-10
1572.800  6.262E-10
1573.000  4.816E-10
1573.200  7.226E-10
1573.400  7.441E-10
1573.600  5.702E-10
1573.800  5.935E-10
1574.000  6.865E-10
1574.200  6.209E-10
1574.400  7.231E-10
1574.600  6.927E-10
1574.800  6.061E-10
1575.000  5.336E-10
1575.200  5.231E-10
1575.400  4.578E-10
1575.600  6.633E-10
1575.800  6.218E-10
1576.000  6.449E-10
1576.200  5.906E-10
1576.400  7.253E-10
1576.600  6.555E-10
1576.800  5.248E-10
1577.000  6.979E-10
1577.200  6.838E-10
1577.400  4.906E-10
1577.600  6.433E-10
1577.800  6.861E-10
1578.000  4.192E-10
1578.200  6.799E-10
1578.400  6.981E-10
1578.600  6.736E-10
1578.800  5.368E-10
1579.000  6.746E-10
1579.200  7.022E-10
1579.400  5.683E-10
1579.600  6.632E-10
1579.800  6.444E-10
1580.000  5.193E-10
1580.200  6.227E-10
1580.400  5.735E-10
1580.600  6.025E-10
1580.800  6.088E-10
1581.000  5.245E-10
1581.200  4.527E-10
1581.400  6.643E-10
1581.600  6.980E-10
1581.800  7.343E-10
1582.000  7.384E-10
1582.400  5.395E-10
1582.600  6.070E-10
1582.800  7.496E-10
1583.000  7.644E-10
1583.200  6.592E-10
1583.400  5.941E-10
1583.600  4.673E-10
1583.800  6.553E-10
1584.000  7.006E-10
1584.200  6.119E-10
1584.400  7.498E-10
1584.600  5.652E-10
1584.800  7.063E-10
1585.000  6.600E-10
1585.200  6.015E-10
1585.400  6.714E-10
1585.600  6.785E-10
1585.800  6.925E-10
1586.000  5.092E-10
1586.200  7.038E-10
1586.400  6.766E-10
1586.600  7.230E-10
1586.800  7.230E-10
1587.000  7.084E-10
1587.200  6.718E-10
1587.400  6.272E-10
1587.600  5.609E-10
1587.800  5.922E-10
1588.000  6.494E-10
1588.200  6.412E-10
1588.400  6.805E-10
1588.600  7.046E-10
1588.800  6.941E-10
1589.000  6.105E-10
1589.200  6.261E-10
1589.400  5.822E-10
1589.600  6.427E-10
1589.800  6.667E-10
1590.000  6.859E-10
1590.200  6.806E-10
1590.400  7.127E-10
1590.600  7.009E-10
1590.800  6.444E-10
1591.000  6.588E-10
1591.200  6.374E-10
1591.400  6.270E-10
1591.600  5.848E-10
1591.800  6.629E-10
1592.000  5.138E-10
1592.200  5.538E-10
1592.400  5.745E-10
1592.600  6.103E-10
1592.800  4.756E-10
1593.000  6.130E-10
1593.200  5.979E-10
1593.400  6.318E-10
1593.600  4.972E-10
1593.800  5.285E-10
1594.000  5.615E-10
1594.200  5.194E-10
1594.400  6.416E-10
1594.600  6.073E-10
1594.800  5.403E-10
1595.000  5.557E-10
1595.200  5.197E-10
1595.400  5.374E-10
1595.600  5.086E-10
1595.800  5.601E-10
1596.000  5.570E-10
1596.200  5.901E-10
1596.400  6.740E-10
1596.600  6.709E-10
1596.800  6.241E-10
1597.000  6.390E-10
1597.200  4.815E-10
1597.400  5.880E-10
1597.600  5.918E-10
1597.800  6.471E-10
1598.000  7.055E-10
1598.200  5.382E-10
1598.400  5.264E-10
1598.600  5.778E-10
1598.800  6.637E-10
1599.000  6.866E-10
1599.600  7.284E-10
1599.800  7.257E-10
1600.000  7.101E-10
1600.200  7.158E-10
1600.400  5.492E-10
1600.600  6.492E-10
1600.800  5.340E-10
1601.000  4.296E-10
1601.200  6.020E-10
1601.400  4.593E-10
1601.600  6.005E-10
1601.800  5.761E-10
1602.000  4.534E-10
1602.200  5.166E-10
1602.400  6.400E-10
1602.600  6.281E-10
1602.800  6.716E-10
1603.000  6.443E-10
1603.200  5.382E-10
1603.400  4.641E-10
1603.600  6.163E-10
1603.800  5.838E-10
1604.000  6.829E-10
1604.200  6.302E-10
1604.400  6.281E-10
1604.600  5.144E-10
1604.800  6.037E-10
1605.000  6.254E-10
1605.200  6.099E-10
1605.400  6.368E-10
1605.600  6.738E-10
1605.800  5.635E-10
1606.000  3.512E-10
1606.200  5.281E-10
1606.400  6.134E-10
1606.600  6.515E-10
1606.800  5.995E-10
1607.000  6.465E-10
1607.200  5.954E-10
1607.400  6.915E-10
1607.600  6.662E-10
1607.800  5.767E-10
1608.000  5.806E-10
1608.200  6.309E-10
1608.400  6.372E-10
1608.600  4.788E-10
1608.800  6.548E-10
1609.000  6.495E-10
1609.200  5.102E-10
1609.400  5.121E-10
1609.600  6.641E-10
1609.800  6.947E-10
1610.000  4.672E-10
1610.200  4.919E-10
1610.400  5.054E-10
1610.600  5.567E-10
1610.800  6.236E-10
1611.000  6.150E-10
1611.200  4.722E-10
1611.400  5.955E-10
1611.600  6.015E-10
1611.800  5.652E-10
1612.000  2.740E-10
1612.200  4.575E-10
1612.400  6.459E-10
1612.600  6.459E-10
1612.800  4.761E-10
1613.000  5.688E-10
1613.200  6.738E-10
1613.400  6.719E-10
1613.600  6.194E-10
1613.800  6.077E-10
1614.000  6.411E-10
1614.200  4.758E-10
1614.400  6.064E-10
1614.600  6.329E-10
1614.800  5.439E-10
1615.000  6.112E-10
1615.200  5.625E-10
1615.400  6.658E-10
1615.600  6.714E-10
1615.800  6.251E-10
1616.000  6.782E-10
1616.200  6.669E-10
1616.400  6.267E-10
1616.600  6.124E-10
1616.800  5.472E-10
1617.000  6.511E-10
1617.200  6.504E-10
1617.400  5.735E-10
1617.600  6.187E-10
1617.800  5.257E-10
1618.000  5.582E-10
1618.200  5.017E-10
1618.400  6.197E-10
1618.600  6.197E-10
1618.800  5.331E-10
1619.000  5.477E-10
1619.200  5.522E-10
1619.400  6.442E-10
1619.600  6.005E-10
1619.800  5.891E-10
1620.000  6.449E-10
1620.200  5.601E-10
1620.400  4.192E-10
1620.600  4.631E-10
1620.800  4.516E-10
1621.000  4.851E-10
1621.200  5.018E-10
1621.400  5.329E-10
1621.600  5.291E-10
1621.800  5.326E-10
1622.000  5.186E-10
1622.200  5.570E-10
1622.400  5.191E-10
1622.600  5.420E-10
1622.800  6.224E-10
1623.000  5.007E-10
1623.200  6.052E-10
1623.400  6.097E-10
1623.600  4.624E-10
1623.800  5.956E-10
1624.000  6.182E-10
1624.200  5.412E-10
1624.400  6.231E-10
1624.600  6.536E-10
1624.800  5.664E-10
1625.000  5.577E-10
1625.200  6.177E-10
1625.400  6.438E-10
1625.600  6.384E-10
1625.800  6.459E-10
1626.000  6.316E-10
1626.200  6.243E-10
1626.400  5.178E-10
1626.600  5.171E-10
1626.800  5.816E-10
1627.000  5.803E-10
1627.200  6.030E-10
1627.400  5.797E-10
1627.600  5.645E-10
1627.800  6.279E-10
1628.000  5.411E-10
1628.200  6.041E-10
1628.400  5.450E-10
1628.600  4.347E-10
1628.800  6.241E-10
1629.000  6.188E-10
1629.200  4.661E-10
1629.400  4.356E-10
1629.600  5.174E-10
1629.800  6.293E-10
1630.000  6.168E-10
1630.200  6.147E-10
1630.400  5.072E-10
1630.600  5.784E-10
1630.800  5.514E-10
1631.000  6.226E-10
1631.200  5.874E-10
1631.400  5.197E-10
1631.600  4.842E-10
1631.800  5.037E-10
1632.000  6.033E-10
1632.200  6.033E-10
1632.400  4.851E-10
1632.600  5.419E-10
1632.800  5.745E-10
1633.000  5.878E-10
1633.200  5.588E-10
1633.400  6.594E-10
1633.600  6.382E-10
1633.800  6.093E-10
1634.000  5.689E-10
1634.200  5.075E-10
1634.400  5.761E-10
1634.600  5.936E-10
1634.800  5.382E-10
1635.000  5.638E-10
1635.200  5.812E-10
1635.400  5.652E-10
1635.600  5.311E-10
1635.800  5.202E-10
1636.000  6.400E-10
1636.200  6.400E-10
1636.400  5.635E-10
1636.600  6.225E-10
1636.800  6.247E-10
1637.000  6.161E-10
1637.200  5.775E-10
1637.400  5.903E-10
1637.600  6.218E-10
1637.800  6.320E-10
1638.000  6.178E-10
1638.200  5.733E-10
1638.400  5.015E-10
1638.600  6.079E-10
1638.800  6.122E-10
1639.000  6.193E-10
1639.200  5.792E-10
1639.400  4.911E-10
1639.600  4.318E-10
1639.800  5.505E-10
1640.000  5.246E-10
1640.200  4.026E-10
1640.400  3.474E-10
1640.600  3.404E-10
1640.800  4.559E-10
1641.000  5.008E-10
1641.200  5.149E-10
1641.400  5.888E-10
1641.600  5.918E-10
1641.800  5.623E-10
1642.000  5.457E-10
1642.200  6.185E-10
1642.400  5.763E-10
1642.600  6.298E-10
1642.800  6.345E-10
1643.000  5.000E-10
1643.200  5.998E-10
1643.400  6.027E-10
1643.600  6.083E-10
1643.800  6.137E-10
1644.000  6.112E-10
1644.200  6.273E-10
1644.400  6.007E-10
1644.600  5.865E-10
1644.800  5.745E-10
1645.000  5.001E-10
1645.200  5.383E-10
1645.400  5.725E-10
1645.600  6.105E-10
1645.800  6.166E-10
1646.000  6.202E-10
1646.200  6.292E-10
1646.400  6.179E-10
1646.600  6.190E-10
1646.800  6.430E-10
1647.000  6.268E-10
1647.200  5.655E-10
1647.400  5.507E-10
1647.600  5.761E-10
1647.800  6.115E-10
1648.000  6.628E-10
1648.200  6.693E-10
1648.400  6.481E-10
1648.600  6.573E-10
1648.800  6.530E-10
1649.000  5.981E-10
1649.200  5.722E-10
1649.400  6.079E-10
1649.600  6.037E-10
1649.800  6.095E-10
1650.000  5.866E-10
1650.200  5.866E-10
1650.400  5.965E-10
1650.600  5.772E-10
1650.800  5.764E-10
1651.000  6.384E-10
1651.200  6.313E-10
1651.400  6.210E-10
1651.600  6.231E-10
1651.800  4.919E-10
1652.000  5.288E-10
1652.200  4.969E-10
1652.400  6.132E-10
1652.600  6.125E-10
1652.800  6.086E-10
1653.000  5.631E-10
1653.200  4.623E-10
1653.400  4.735E-10
1653.600  4.902E-10
1653.800  5.724E-10
1654.000  5.870E-10
1654.200  6.088E-10
1654.400  5.839E-10
1654.600  5.970E-10
1654.800  6.209E-10
1655.000  6.294E-10
1655.200  6.227E-10
1655.400  6.024E-10
1655.600  6.004E-10
1655.800  6.376E-10
1656.000  6.407E-10
1656.200  6.124E-10
1656.400  5.694E-10
1656.600  5.668E-10
1656.800  5.113E-10
1657.000  4.632E-10
1657.200  4.978E-10
1657.400  5.301E-10
1657.600  5.841E-10
1657.800  5.903E-10
1658.000  5.318E-10
1658.200  5.376E-10
1658.400  5.035E-10
1658.600  4.999E-10
1658.800  5.886E-10
1659.000  6.083E-10
1659.200  5.695E-10
1659.400  6.043E-10
1659.600  5.598E-10
1659.800  5.817E-10
1660.000  6.204E-10
1660.200  6.102E-10
1660.400  5.990E-10
1660.600  6.006E-10
1660.800  6.004E-10
1661.000  5.486E-10
1661.200  5.519E-10
1661.400  5.985E-10
1661.600  5.936E-10
1661.800  5.071E-10
1662.000  5.128E-10
1662.200  5.403E-10
1662.400  4.862E-10
1662.600  4.480E-10
1662.800  5.609E-10
1663.000  6.409E-10
1663.200  5.715E-10
1663.400  6.331E-10
1663.600  6.301E-10
1663.800  6.030E-10
1664.000  6.151E-10
1664.200  5.965E-10
1664.400  4.983E-10
1664.600  5.488E-10
1664.800  5.780E-10
1665.000  5.154E-10
1665.200  5.763E-10
1665.400  6.038E-10
1665.600  6.053E-10
1665.800  6.150E-10
1666.000  6.141E-10
1666.200  5.963E-10
1666.400  5.887E-10
1666.600  6.010E-10
1666.800  5.122E-10
1667.000  5.248E-10
1667.200  5.068E-10
1667.400  5.888E-10
1667.600  5.941E-10
1667.800  5.499E-10
1668.000  5.993E-10
1668.200  5.873E-10
1668.400  5.547E-10
1668.600  5.738E-10
1668.800  6.046E-10
1669.000  5.935E-10
1669.200  5.826E-10
1669.400  5.714E-10
1669.600  5.083E-10
1669.800  4.494E-10
1670.000  5.556E-10
1670.200  5.556E-10
1670.400  5.453E-10
1670.600  5.438E-10
1670.800  4.238E-10
1671.000  4.515E-10
1671.200  4.828E-10
1671.400  5.973E-10
1671.600  6.209E-10
1671.800  6.236E-10
1672.000  5.979E-10
1672.200  5.587E-10
1672.400  5.255E-10
1672.600  5.038E-10
1672.800  4.732E-10
1673.000  4.549E-10
1673.200  4.451E-10
1673.400  4.507E-10
1673.600  5.238E-10
1673.800  5.167E-10
1674.000  5.937E-10
1674.200  6.031E-10
1674.400  6.002E-10
1674.600  5.958E-10
1674.800  5.794E-10
1675.000  6.160E-10
1675.200  6.039E-10
1675.400  5.776E-10
1675.600  5.802E-10
1675.800  4.550E-10
1676.000  5.432E-10
1676.200  5.432E-10
1676.400  5.191E-10
1676.600  4.981E-10
1676.800  5.088E-10
1677.000  5.626E-10
1677.200  5.562E-10
1677.400  5.603E-10
1677.600  5.816E-10
1677.800  5.660E-10
1678.000  5.670E-10
1678.200  6.179E-10
1678.400  6.193E-10
1678.600  5.924E-10
1678.800  6.022E-10
1679.000  5.989E-10
1679.200  5.827E-10
1679.400  5.224E-10
1679.600  5.731E-10
1679.800  5.883E-10
1680.000  5.855E-10
1680.200  5.801E-10
1680.400  6.109E-10
1680.600  6.110E-10
1680.800  5.943E-10
1681.000  5.967E-10
1681.200  5.780E-10
1681.400  5.284E-10
1681.600  5.343E-10
1681.800  5.781E-10
1682.000  5.757E-10
1682.200  5.424E-10
1682.400  5.794E-10
1682.600  5.818E-10
1682.800  5.802E-10
1683.000  5.475E-10
1683.200  5.390E-10
1683.400  5.185E-10
1683.600  4.871E-10
1683.800  4.885E-10
1684.000  5.696E-10
1684.200  5.742E-10
1684.400  5.789E-10
1684.600  5.889E-10
1684.800  5.419E-10
1685.000  5.894E-10
1685.200  5.739E-10
1685.400  6.094E-10
1685.600  6.107E-10
1685.800  5.761E-10
1686.000  5.503E-10
1686.200  5.373E-10
1686.400  5.653E-10
1686.600  5.859E-10
1686.800  5.720E-10
1687.000  5.680E-10
1687.200  5.713E-10
1687.400  5.916E-10
1687.600  5.641E-10
1687.800  4.557E-10
1688.000  4.251E-10
1688.200  5.824E-10
1688.400  5.830E-10
1688.600  5.790E-10
1688.800  5.434E-10
1689.000  5.634E-10
1689.200  6.019E-10
1689.400  6.061E-10
1689.600  5.852E-10
1689.800  5.657E-10
1690.000  5.612E-10
1690.200  5.268E-10
1690.400  5.043E-10
1690.600  4.846E-10
1690.800  5.290E-10
1691.000  5.559E-10
1691.200  5.427E-10
1691.400  6.065E-10
1691.600  6.103E-10
1691.800  5.704E-10
1692.000  5.425E-10
1692.200  5.656E-10
1692.400  5.240E-10
1692.600  5.005E-10
1692.800  5.220E-10
1693.000  5.319E-10
1693.200  5.674E-10
1693.400  5.866E-10
1693.600  5.897E-10
1693.800  5.528E-10
1694.000  5.735E-10
1694.200  5.381E-10
1694.400  5.557E-10
1694.600  4.941E-10
1694.800  5.245E-10
1695.000  5.675E-10
1695.200  5.094E-10
1695.400  5.243E-10
1695.600  4.663E-10
1695.800  4.821E-10
1696.000  4.872E-10
1696.200  5.100E-10
1696.400  5.588E-10
1696.600  5.560E-10
1696.800  5.351E-10
1697.000  5.153E-10
1697.200  5.824E-10
1697.400  6.033E-10
1697.600  5.838E-10
1697.800  5.812E-10
1698.000  5.821E-10
1698.200  4.995E-10
1698.400  4.706E-10
1698.600  5.575E-10
1698.800  5.540E-10
1699.000  4.654E-10
1699.200  4.778E-10
1699.400  5.160E-10
1699.600  5.404E-10
1699.800  5.553E-10
1700.000  5.651E-10
1700.200  5.779E-10
1700.400  5.615E-10
1700.600  4.926E-10
1700.800  5.294E-10
1701.000  5.245E-10
1701.200  4.785E-10
1701.400  5.438E-10
1701.600  4.721E-10
1701.800  5.174E-10
1702.000  5.348E-10
1702.200  5.087E-10
1702.400  5.262E-10
1702.600  5.542E-10
1702.800  4.998E-10
1703.000  5.084E-10
1703.200  5.328E-10
1703.400  5.196E-10
1703.600  5.161E-10
1703.800  5.523E-10
1704.000  5.584E-10
1704.200  5.273E-10
1704.400  5.694E-10
1704.600  5.849E-10
1704.800  5.083E-10
1705.000  5.250E-10
1705.200  5.303E-10
1705.400  5.622E-10
1705.600  5.797E-10
1705.800  5.534E-10
1706.000  5.048E-10
1706.200  4.816E-10
1706.400  5.121E-10
1706.600  5.437E-10
1706.800  5.473E-10
1707.000  5.771E-10
1707.200  5.388E-10
1707.400  4.897E-10
1707.600  4.252E-10
1707.800  5.039E-10
1708.000  5.182E-10
1708.200  5.811E-10
1708.400  5.844E-10
1708.600  5.824E-10
1708.800  4.893E-10
1709.000  5.691E-10
1709.200  5.282E-10
1709.400  5.646E-10
1709.600  5.717E-10
1709.800  5.210E-10
1710.000  3.781E-10
1710.200  5.227E-10
1710.400  5.448E-10
1710.600  5.130E-10
1710.800  5.571E-10
1711.000  5.380E-10
1711.200  5.345E-10
1711.400  5.371E-10
1711.600  4.504E-10
1711.800  4.423E-10
1712.000  5.075E-10
1712.200  5.816E-10
1712.400  5.814E-10
1712.600  5.607E-10
1712.800  5.203E-10
1713.000  4.834E-10
1713.200  5.167E-10
1713.400  5.707E-10
1713.600  5.553E-10
1713.800  5.154E-10
1714.000  4.314E-10
1714.200  5.236E-10
1714.400  5.343E-10
1714.600  5.159E-10
1714.800  4.818E-10
1715.000  5.384E-10
1715.200  5.350E-10
1715.400  4.768E-10
1715.600  5.541E-10
1715.800  5.495E-10
1716.000  4.802E-10
1716.200  5.296E-10
1716.400  5.201E-10
1716.600  5.487E-10
1716.800  5.450E-10
1717.000  5.211E-10
1717.200  4.672E-10
1717.400  5.180E-10
1717.600  4.905E-10
1717.800  5.107E-10
1718.000  4.959E-10
1718.200  4.544E-10
1718.400  4.030E-10
1718.600  3.513E-10
1718.800  4.843E-10
1719.000  4.779E-10
1719.200  5.412E-10
1719.400  5.461E-10
1719.600  4.324E-10
1719.800  5.646E-10
1720.000  5.504E-10
1720.200  5.341E-10
1720.400  5.548E-10
1720.600  4.798E-10
1720.800  4.519E-10
1721.000  3.508E-10
1721.200  3.759E-10
1721.400  4.578E-10
1721.600  4.924E-10
1721.800  4.284E-10
1722.000  5.265E-10
1722.200  5.003E-10
1722.400  3.931E-10
1722.600  3.830E-10
1722.800  3.529E-10
1723.000  4.054E-10
1723.200  5.159E-10
1723.400  5.361E-10
1723.600  5.416E-10
1723.800  4.729E-10
1724.000  4.368E-10
1724.200  4.218E-10
1724.400  4.163E-10
1724.600  4.569E-10
1724.800  4.577E-10
1725.000  4.694E-10
1725.200  5.103E-10
1725.400  5.098E-10
1725.600  5.116E-10
1725.800  4.579E-10
1726.000  5.415E-10
1726.200  5.408E-10
1726.400  5.337E-10
1726.600  5.397E-10
1726.800  5.298E-10
1727.000  5.413E-10
1727.200  5.238E-10
1727.400  5.297E-10
1727.600  4.440E-10
1727.800  5.036E-10
1728.000  5.506E-10
1728.200  5.548E-10
1728.400  4.836E-10
1728.600  5.237E-10
1728.800  4.930E-10
1729.000  4.653E-10
1729.200  4.805E-10
1729.400  4.859E-10
1729.600  5.335E-10
1729.800  5.537E-10
1730.000  5.017E-10
1730.200  5.283E-10
1730.400  5.078E-10
1730.600  4.167E-10
1730.800  4.803E-10
1731.000  4.368E-10
1731.200  5.199E-10
1731.400  4.980E-10
1731.600  4.752E-10
1731.800  4.947E-10
1732.000  5.372E-10
1732.200  5.372E-10
1732.400  5.560E-10
1732.600  5.285E-10
1732.800  4.875E-10
1733.000  4.894E-10
1733.200  4.490E-10
1733.400  5.309E-10
1733.600  5.590E-10
1733.800  5.536E-10
1734.000  4.926E-10
1734.200  4.861E-10
1734.400  5.412E-10
1734.600  5.284E-10
1734.800  5.317E-10
1735.000  4.916E-10
1735.200  5.420E-10
1735.400  5.302E-10
1735.600  5.162E-10
1735.800  5.007E-10
1736.000  5.275E-10
1736.200  4.859E-10
1736.400  5.018E-10
1736.600  5.015E-10
1736.800  5.412E-10
1737.000  5.601E-10
1737.200  5.632E-10
1737.400  5.627E-10
1737.600  5.449E-10
1737.800  5.109E-10
1738.000  5.263E-10
1738.200  5.434E-10
1738.400  4.468E-10
1738.600  4.417E-10
1738.800  3.786E-10
1739.000  4.566E-10
1739.200  4.874E-10
1739.400  5.092E-10
1739.600  5.252E-10
1739.800  5.358E-10
1740.000  4.766E-10
1740.200  4.717E-10
1740.400  4.479E-10
1740.600  5.242E-10
1740.800  4.905E-10
1741.000  3.670E-10
1741.200  4.841E-10
1741.400  5.050E-10
1741.600  5.024E-10
1741.800  5.108E-10
1742.000  5.276E-10
1742.200  3.921E-10
1742.400  4.862E-10
1742.600  5.554E-10
1742.800  5.561E-10
1743.000  4.820E-10
1743.200  4.720E-10
1743.400  4.695E-10
1743.600  4.960E-10
1743.800  5.386E-10
1744.000  5.366E-10
1744.200  5.366E-10
1744.400  4.524E-10
1744.600  4.867E-10
1744.800  5.426E-10
1745.000  5.404E-10
1745.200  4.657E-10
1745.400  4.643E-10
1745.600  5.007E-10
1745.800  4.398E-10
1746.000  5.057E-10
1746.200  5.266E-10
1746.400  5.297E-10
1746.600  5.377E-10
1746.800  4.769E-10
1747.000  4.445E-10
1747.200  3.756E-10
1747.400  3.816E-10
1747.600  5.047E-10
1747.800  4.840E-10
1748.000  4.027E-10
1748.200  4.753E-10
1748.400  4.571E-10
1748.600  4.556E-10
1748.800  5.219E-10
1749.000  5.270E-10
1749.200  4.945E-10
1749.400  4.965E-10
1749.600  4.698E-10
1749.800  4.639E-10
1750.000  4.934E-10
1750.200  4.557E-10
1750.400  4.348E-10
1750.600  4.840E-10
1750.800  4.924E-10
1751.000  5.361E-10
1751.200  5.171E-10
1751.400  4.128E-10
1751.600  4.876E-10
1751.800  4.403E-10
1752.000  4.154E-10
1752.200  4.851E-10
1752.400  5.026E-10
1752.600  4.522E-10
1752.800  5.392E-10
1753.000  5.386E-10
1753.200  3.769E-10
1753.400  4.838E-10
1753.600  4.107E-10
1753.800  5.114E-10
1754.000  5.084E-10
1754.200  5.409E-10
1754.400  5.465E-10
1754.600  5.294E-10
1754.800  4.955E-10
1755.000  4.674E-10
1755.200  5.131E-10
1755.400  5.101E-10
1755.600  5.062E-10
1755.800  4.364E-10
1756.000  5.090E-10
1756.200  5.327E-10
1756.400  5.331E-10
1756.600  5.427E-10
1756.800  5.392E-10
1757.000  5.071E-10
1757.200  4.860E-10
1757.400  5.405E-10
1757.600  5.374E-10
1757.800  5.245E-10
1758.000  5.252E-10
1758.200  4.776E-10
1758.400  5.133E-10
1758.600  4.986E-10
1758.800  4.568E-10
1759.000  4.796E-10
1759.200  4.933E-10
1759.400  5.057E-10
1759.600  5.190E-10
1759.800  5.346E-10
1760.000  5.151E-10
1760.200  5.234E-10
1760.400  4.747E-10
1760.600  2.188E-10
1760.800  3.926E-10
1761.000  4.030E-10
1761.200  4.602E-10
1761.400  4.818E-10
1761.600  5.174E-10
1761.800  5.219E-10
1762.000  5.313E-10
1762.200  5.237E-10
1762.400  5.105E-10
1762.600  5.107E-10
1762.800  5.314E-10
1763.000  4.782E-10
1763.200  4.676E-10
1763.400  5.295E-10
1763.600  5.291E-10
1763.800  4.441E-10
1764.000  4.593E-10
1764.200  4.818E-10
1764.400  5.220E-10
1764.600  4.705E-10
1764.800  4.164E-10
1765.000  4.261E-10
1765.200  4.617E-10
1765.400  5.187E-10
1765.600  5.322E-10
1765.800  5.209E-10
1766.000  5.228E-10
1766.200  5.252E-10
1766.400  5.085E-10
1766.600  4.958E-10
1766.800  5.252E-10
1767.000  5.267E-10
1767.200  4.998E-10
1767.400  5.118E-10
1767.600  5.103E-10
1767.800  5.182E-10
1768.000  4.681E-10
1768.200  5.093E-10
1768.400  5.074E-10
1768.600  5.112E-10
1768.800  5.112E-10
1769.000  4.919E-10
1769.200  4.956E-10
1769.400  4.875E-10
1769.600  5.077E-10
1769.800  3.800E-10
1770.000  4.804E-10
1770.200  4.505E-10
1770.400  4.043E-10
1770.600  4.610E-10
1770.800  4.936E-10
1771.000  5.042E-10
1771.200  4.674E-10
1771.400  4.984E-10
1771.600  4.830E-10
1771.800  4.853E-10
1772.000  4.875E-10
1772.200  3.947E-10
1772.400  4.722E-10
1772.600  4.716E-10
1772.800  4.855E-10
1773.000  4.777E-10
1773.200  4.622E-10
1773.400  4.815E-10
1773.600  4.817E-10
1773.800  3.777E-10
1774.000  4.482E-10
1774.200  4.919E-10
1774.400  4.810E-10
1774.600  4.744E-10
1774.800  4.560E-10
1775.000  4.920E-10
1775.200  5.030E-10
1775.400  4.791E-10
1775.600  3.913E-10
1775.800  3.982E-10
1776.000  4.194E-10
1776.200  3.473E-10
1776.400  4.859E-10
1776.600  4.997E-10
1776.800  4.987E-10
1777.000  4.581E-10
1777.200  4.581E-10
1777.400  4.575E-10
1777.600  5.167E-10
1777.800  5.153E-10
1778.000  4.845E-10
1778.200  5.016E-10
1778.400  5.043E-10
1778.600  5.199E-10
1778.800  4.669E-10
1779.000  4.498E-10
1779.200  4.498E-10
1779.400  4.700E-10
1779.600  4.366E-10
1779.800  4.985E-10
1780.000  4.918E-10
1780.200  4.584E-10
1780.400  5.239E-10
1780.600  5.208E-10
1780.800  4.608E-10
1781.000  4.654E-10
1781.200  4.335E-10
1781.400  4.240E-10
1781.600  4.842E-10
1781.800  4.898E-10
1782.000  4.862E-10
1782.200  4.602E-10
1782.400  4.639E-10
1782.600  5.072E-10
1782.800  5.104E-10
1783.000  4.228E-10
1783.200  4.250E-10
1783.400  5.161E-10
1783.600  5.149E-10
1783.800  4.980E-10
1784.000  5.002E-10
1784.200  4.764E-10
1784.400  4.978E-10
1784.600  4.865E-10
1784.800  4.119E-10
1785.000  4.193E-10
1785.200  4.688E-10
1785.400  4.811E-10
1785.600  5.023E-10
1785.800  5.007E-10
1786.000  5.072E-10
1786.200  4.834E-10
1786.400  4.934E-10
1786.600  4.960E-10
1786.800  4.884E-10
1787.000  4.198E-10
1787.200  4.083E-10
1787.400  4.579E-10
1787.600  4.567E-10
1787.800  5.026E-10
1788.000  5.049E-10
1788.200  4.649E-10
1788.400  4.149E-10
1788.600  3.755E-10
1788.800  4.141E-10
1789.000  4.531E-10
1789.200  4.341E-10
1789.400  4.656E-10
1789.600  4.631E-10
1789.800  4.910E-10
1790.000  4.890E-10
1790.200  4.619E-10
1790.400  4.670E-10
1790.600  4.252E-10
1790.800  4.500E-10
1791.000  4.519E-10
1791.200  4.184E-10
1791.400  4.276E-10
1791.600  4.334E-10
1791.800  4.161E-10
1792.000  4.809E-10
1792.200  4.696E-10
1792.400  4.750E-10
1792.600  4.503E-10
1792.800  4.265E-10
1793.000  4.529E-10
1793.200  4.005E-10
1793.400  4.673E-10
1793.600  4.717E-10
1793.800  4.785E-10
1794.000  3.929E-10
1794.200  4.507E-10
1794.400  4.864E-10
1794.600  4.915E-10
1794.800  4.636E-10
1795.000  4.292E-10
1795.200  4.691E-10
1795.400  4.812E-10
1795.600  4.947E-10
1795.800  4.836E-10
1796.000  4.710E-10
1796.200  4.865E-10
1796.400  4.978E-10
1796.600  4.994E-10
1796.800  4.972E-10
1797.000  4.882E-10
1797.200  4.647E-10
1797.400  4.705E-10
1797.600  4.852E-10
1797.800  4.937E-10
1798.000  4.149E-10
1798.200  4.080E-10
1798.400  3.905E-10
1798.600  4.015E-10
1798.800  4.813E-10
1799.000  4.922E-10
1799.200  4.445E-10
1799.400  4.704E-10
1799.600  4.823E-10
1799.800  4.826E-10
1800.000  4.765E-10
1800.200  4.357E-10
1800.400  4.760E-10
1800.600  4.945E-10
1800.800  4.987E-10
1801.000  4.992E-10
1801.200  4.794E-10
1801.400  4.890E-10
1801.600  4.650E-10
1801.800  4.388E-10
1802.000  4.488E-10
1802.200  4.923E-10
1802.400  4.968E-10
1802.600  4.955E-10
1802.800  4.486E-10
1803.000  4.421E-10
1803.200  4.053E-10
1803.400  4.329E-10
1803.600  4.876E-10
1803.800  4.942E-10
1804.000  4.932E-10
1804.200  4.885E-10
1804.400  4.731E-10
1804.600  4.136E-10
1804.800  4.815E-10
1805.000  4.857E-10
1805.200  4.900E-10
1805.400  4.630E-10
1805.600  4.390E-10
1805.800  4.620E-10
1806.000  4.907E-10
1806.200  4.921E-10
1806.400  4.783E-10
1806.600  4.627E-10
1806.800  4.636E-10
1807.000  4.797E-10
1807.200  4.364E-10
1807.400  3.991E-10
1807.600  4.756E-10
1807.800  4.551E-10
1808.000  4.579E-10
1808.200  3.826E-10
1808.400  4.218E-10
1808.600  4.435E-10
1808.800  4.605E-10
1809.000  4.816E-10
1809.200  4.847E-10
1809.400  4.471E-10
1809.600  4.807E-10
1809.800  4.846E-10
1810.000  4.565E-10
1810.200  4.565E-10
1810.400  4.818E-10
1810.600  4.644E-10
1810.800  4.546E-10
1811.000  4.615E-10
1811.200  4.629E-10
1811.400  4.508E-10
1811.600  4.167E-10
1811.800  3.913E-10
1812.000  3.422E-10
1812.200  4.249E-10
1812.400  4.263E-10
1812.600  4.274E-10
1812.800  4.111E-10
1813.000  3.541E-10
1813.200  3.948E-10
1813.400  4.160E-10
1813.600  4.780E-10
1813.800  4.780E-10
1814.000  4.335E-10
1814.200  4.335E-10
1814.400  4.573E-10
1814.600  4.518E-10
1814.800  4.656E-10
1815.000  4.732E-10
1815.200  4.726E-10
1815.400  3.549E-10
1815.600  4.122E-10
1815.800  4.002E-10
1816.000  3.896E-10
1816.200  3.422E-10
1816.400  4.265E-10
1816.600  4.580E-10
1816.800  4.499E-10
1817.000  4.451E-10
1817.200  4.529E-10
1817.400  4.534E-10
1817.600  4.397E-10
1817.800  3.845E-10
1818.000  4.597E-10
1818.200  4.883E-10
1818.400  4.881E-10
1818.600  4.797E-10
1818.800  4.776E-10
1819.000  4.680E-10
1819.200  4.613E-10
1819.400  4.157E-10
1819.600  3.466E-10
1819.800  3.516E-10
1820.000  3.791E-10
1820.200  3.888E-10
1820.400  4.577E-10
1820.600  4.249E-10
1820.800  4.814E-10
1821.000  4.822E-10
1821.200  4.369E-10
1821.400  4.701E-10
1821.600  4.804E-10
1821.800  4.356E-10
1822.000  3.651E-10
1822.200  3.798E-10
1822.400  4.111E-10
1822.600  4.559E-10
1822.800  4.479E-10
1823.000  4.391E-10
1823.200  3.326E-10
1823.400  4.517E-10
1823.600  4.444E-10
1823.800  4.338E-10
1824.000  4.239E-10
1824.200  4.772E-10
1824.400  4.807E-10
1824.600  4.750E-10
1824.800  4.472E-10
1825.000  4.471E-10
1825.200  4.210E-10
1825.400  4.064E-10
1825.600  4.547E-10
1825.800  4.706E-10
1826.000  4.625E-10
1826.200  4.413E-10
1826.400  3.175E-10
1826.600  3.914E-10
1826.800  4.750E-10
1827.000  4.651E-10
1827.200  4.486E-10
1827.400  4.522E-10
1827.600  4.329E-10
1827.800  4.703E-10
1828.000  4.619E-10
1828.200  4.285E-10
1828.400  4.349E-10
1828.600  4.619E-10
1828.800  4.562E-10
1829.000  4.274E-10
1829.200  4.429E-10
1829.400  4.115E-10
1829.600  4.484E-10
1829.800  4.487E-10
1830.000  4.258E-10
1830.200  3.386E-10
1830.400  3.947E-10
1830.600  4.148E-10
1830.800  3.598E-10
1831.000  3.962E-10
1831.200  4.541E-10
1831.400  4.557E-10
1831.600  4.103E-10
1831.800  4.524E-10
1832.000  4.639E-10
1832.200  4.567E-10
1832.400  4.612E-10
1832.600  4.675E-10
1832.800  4.319E-10
1833.000  4.614E-10
1833.200  4.587E-10
1833.400  4.247E-10
1833.600  4.525E-10
1833.800  4.311E-10
1834.000  4.343E-10
1834.200  4.373E-10
1834.400  4.324E-10
1834.600  4.536E-10
1834.800  4.588E-10
1835.000  4.357E-10
1835.200  4.130E-10
1835.400  4.447E-10
1835.600  4.593E-10
1835.800  4.565E-10
1836.000  4.592E-10
1836.200  4.640E-10
1836.400  4.458E-10
1836.600  4.593E-10
1836.800  4.719E-10
1837.000  4.215E-10
1837.200  4.399E-10
1837.400  4.531E-10
1837.600  4.085E-10
1837.800  3.347E-10
1838.000  3.913E-10
1838.200  4.333E-10
1838.400  4.247E-10
1838.600  4.156E-10
1838.800  3.874E-10
1839.000  4.269E-10
1839.200  4.271E-10
1839.400  4.195E-10
1839.600  4.265E-10
1839.800  4.494E-10
1840.000  4.612E-10
1840.200  4.558E-10
1840.400  3.652E-10
1840.600  3.866E-10
1840.800  4.546E-10
1841.000  4.540E-10
1841.200  4.654E-10
1841.400  4.683E-10
1841.600  3.607E-10
1841.800  4.202E-10
1842.000  4.234E-10
1842.200  4.082E-10
1842.400  4.573E-10
1842.600  4.468E-10
1842.800  4.016E-10
1843.000  4.258E-10
1843.200  3.421E-10
1843.400  3.718E-10
1843.600  3.095E-10
1843.800  4.279E-10
1844.000  4.419E-10
1844.200  3.846E-10
1844.400  3.869E-10
1844.600  4.004E-10
1844.800  4.177E-10
1845.000  4.260E-10
1845.200  3.599E-10
1845.400  3.685E-10
1845.600  3.308E-10
1845.800  3.630E-10
1846.000  3.989E-10
1846.200  4.015E-10
1846.400  4.237E-10
1846.600  4.166E-10
1846.800  4.501E-10
1847.000  4.447E-10
1847.200  4.010E-10
1847.400  3.959E-10
1847.600  4.153E-10
1847.800  3.881E-10
1848.000  4.152E-10
1848.200  3.838E-10
1848.400  4.080E-10
1848.600  3.971E-10
1848.800  4.429E-10
1849.000  4.342E-10
1849.200  3.983E-10
1849.400  3.526E-10
1849.600  2.355E-10
1849.800  3.690E-10
1850.000  4.069E-10
1850.200  3.403E-10
1850.400  4.052E-10
1850.600  4.369E-10
1850.800  3.506E-10
1851.000  4.215E-10
1851.200  4.237E-10
1851.400  3.858E-10
1851.600  4.374E-10
1851.800  4.307E-10
1852.000  3.964E-10
1852.200  4.084E-10
1852.400  4.148E-10
1852.600  4.189E-10
1852.800  4.108E-10
1853.000  3.579E-10
1853.200  4.486E-10
1853.400  4.471E-10
1853.600  4.272E-10
1853.800  4.373E-10
1854.000  4.223E-10
1854.200  4.185E-10
1854.400  3.304E-10
1854.600  3.101E-10
1854.800  2.118E-10
1855.000  1.635E-10
1855.200  3.540E-10
1855.400  3.889E-10
1855.600  3.360E-10
1855.800  4.061E-10
1856.000  4.299E-10
1856.200  4.274E-10
1856.400  4.382E-10
1856.600  4.406E-10
1856.800  4.038E-10
1857.000  4.370E-10
1857.200  4.380E-10
1857.400  4.517E-10
1857.600  4.589E-10
1857.800  4.524E-10
1858.000  4.292E-10
1858.200  3.775E-10
1858.400  4.395E-10
1858.600  4.398E-10
1858.800  3.259E-10
1859.000  4.441E-10
1859.200  4.480E-10
1859.400  4.261E-10
1859.600  4.237E-10
1859.800  4.253E-10
1860.000  3.598E-10
1860.200  4.155E-10
1860.400  4.417E-10
1860.600  4.073E-10
1860.800  3.973E-10
1861.000  4.169E-10
1861.200  4.303E-10
1861.400  4.532E-10
1861.600  4.539E-10
1861.800  4.053E-10
1862.000  4.409E-10
1862.200  4.453E-10
1862.400  4.229E-10
1862.600  3.731E-10
1862.800  3.099E-10
1863.000  2.513E-10
1863.200  3.524E-10
1863.400  3.714E-10
1863.600  4.149E-10
1863.800  4.344E-10
1864.000  4.201E-10
1864.200  3.713E-10
1864.400  4.232E-10
1864.600  4.233E-10
1864.800  4.146E-10
1865.000  4.152E-10
1865.200  4.292E-10
1865.400  3.473E-10
1865.600  3.478E-10
1865.800  3.475E-10
1866.000  4.162E-10
1866.200  4.129E-10
1866.400  3.465E-10
1866.600  3.560E-10
1866.800  4.034E-10
1867.000  4.115E-10
1867.200  3.748E-10
1867.400  4.151E-10
1867.600  4.331E-10
1867.800  4.287E-10
1868.000  4.343E-10
1868.200  4.341E-10
1868.400  3.948E-10
1868.600  4.208E-10
1868.800  4.137E-10
1869.000  4.252E-10
1869.200  4.326E-10
1869.400  4.188E-10
1869.600  4.273E-10
1869.800  3.830E-10
1870.000  3.169E-10
1870.200  4.266E-10
1870.400  4.313E-10
1870.600  4.284E-10
1870.800  4.072E-10
1871.000  4.195E-10
1871.200  3.877E-10
1871.400  2.999E-10
1871.600  3.457E-10
1871.800  4.172E-10
1872.000  4.148E-10
1872.200  4.003E-10
1872.400  3.167E-10
1872.600  3.461E-10
1872.800  3.792E-10
1873.000  3.965E-10
1873.200  4.088E-10
1873.400  4.162E-10
1873.600  4.067E-10
1873.800  3.997E-10
1874.000  4.081E-10
1874.200  3.643E-10
1874.400  3.685E-10
1874.600  4.350E-10
1874.800  4.444E-10
1875.000  4.218E-10
1875.200  4.137E-10
1875.400  4.348E-10
1875.600  4.224E-10
1875.800  4.363E-10
1876.000  4.344E-10
1876.200  4.022E-10
1876.400  4.026E-10
1876.600  4.239E-10
1876.800  4.358E-10
1877.000  4.342E-10
1877.200  4.391E-10
1877.400  4.379E-10
1877.600  4.240E-10
1877.800  4.196E-10
1878.000  4.262E-10
1878.200  3.289E-10
1878.400  4.337E-10
1878.600  4.327E-10
1878.800  4.165E-10
1879.000  4.284E-10
1879.200  3.976E-10
1879.400  4.112E-10
1879.600  4.358E-10
1879.800  4.393E-10
1880.000  4.312E-10
1880.200  4.022E-10
1880.400  4.282E-10
1880.600  4.202E-10
1880.800  2.954E-10
1881.000  4.159E-10
1881.200  4.159E-10
1881.400  3.837E-10
1881.600  3.961E-10
1881.800  3.337E-10
1882.000  3.719E-10
1882.200  3.529E-10
1882.400  3.711E-10
1882.600  3.975E-10
1882.800  4.053E-10
1883.000  4.009E-10
1883.200  2.993E-10
1883.400  3.361E-10
1883.600  4.020E-10
1883.800  4.212E-10
1884.000  3.730E-10
1884.200  4.188E-10
1884.400  3.875E-10
1884.600  3.673E-10
1884.800  2.941E-10
1885.000  3.222E-10
1885.200  2.987E-10
1885.400  3.628E-10
1885.600  3.945E-10
1885.800  4.245E-10
1886.000  3.951E-10
1886.200  3.891E-10
1886.400  4.198E-10
1886.600  4.157E-10
1886.800  3.312E-10
1887.000  3.588E-10
1887.200  3.639E-10
1887.400  3.075E-10
1887.600  3.165E-10
1887.800  3.392E-10
1888.000  3.955E-10
1888.200  4.114E-10
1888.400  3.817E-10
1888.600  3.615E-10
1888.800  3.788E-10
1889.000  4.180E-10
1889.200  4.127E-10
1889.400  4.104E-10
1889.600  3.760E-10
1889.800  3.623E-10
1890.000  4.168E-10
1890.200  4.221E-10
1890.400  4.193E-10
1890.600  4.195E-10
1890.800  3.487E-10
1891.000  3.013E-10
1891.200  3.016E-10
1891.400  3.020E-10
1891.600  3.084E-10
1891.800  3.648E-10
1892.000  3.701E-10
1892.200  2.298E-10
1892.400  2.160E-10
1892.600  2.528E-10
1892.800  3.317E-10
1893.000  3.296E-10
1893.200  3.307E-10
1893.400  3.785E-10
1893.600  4.195E-10
1893.800  4.174E-10
1894.000  3.845E-10
1894.200  3.285E-10
1894.400  3.364E-10
1894.600  3.434E-10
1894.800  4.204E-10
1895.000  4.217E-10
1895.200  3.504E-10
1895.400  3.805E-10
1895.600  2.675E-10
1895.800  2.334E-10
1896.000  3.531E-10
1896.200  4.109E-10
1896.400  4.096E-10
1896.600  3.953E-10
1896.800  3.976E-10
1897.000  2.767E-10
1897.200  3.081E-10
1897.400  3.789E-10
1897.600  3.888E-10
1897.800  4.187E-10
1898.000  4.203E-10
1898.200  4.197E-10
1898.400  4.169E-10
1898.600  4.203E-10
1898.800  4.201E-10
1899.000  3.525E-10
1899.200  3.912E-10
1899.400  3.839E-10
1899.600  4.002E-10
1899.800  4.182E-10
1900.000  4.107E-10
1900.200  3.977E-10
1900.400  4.182E-10
1900.600  4.178E-10
1900.800  3.789E-10
1901.000  4.041E-10
1901.200  3.926E-10
1901.400  2.923E-10
1901.600  2.863E-10
1901.800  3.680E-10
1902.000  3.877E-10
1902.200  3.877E-10
1902.400  3.680E-10
1902.600  3.119E-10
1902.800  3.836E-10
1903.000  3.854E-10
1903.200  3.613E-10
1903.400  3.021E-10
1903.600  3.936E-10
1903.800  3.789E-10
1904.000  3.537E-10
1904.200  3.745E-10
1904.400  3.709E-10
1904.600  3.131E-10
1904.800  4.098E-10
1905.000  3.861E-10
1905.200  4.016E-10
1905.400  3.654E-10
1905.600  4.175E-10
1905.800  4.167E-10
1906.000  3.597E-10
1906.200  3.980E-10
1906.400  4.041E-10
1906.600  3.294E-10
1906.800  3.778E-10
1907.000  3.197E-10
1907.200  3.557E-10
1907.400  3.989E-10
1907.600  3.820E-10
1907.800  2.336E-10
1908.000  3.454E-10
1908.200  4.062E-10
1908.400  4.033E-10
1908.600  4.080E-10
1908.800  4.046E-10
1909.000  3.783E-10
1909.200  3.728E-10
1909.400  4.077E-10
1909.600  3.972E-10
1909.800  3.877E-10
1910.000  3.205E-10
1910.200  3.766E-10
1910.400  3.257E-10
1910.600  2.793E-10
1910.800  3.615E-10
1911.000  3.869E-10
1911.200  4.151E-10
1911.400  4.080E-10
1911.600  3.389E-10
1911.800  3.548E-10
1912.000  3.837E-10
1912.200  4.139E-10
1912.400  4.163E-10
1912.600  4.148E-10
1912.800  4.100E-10
1913.000  3.999E-10
1913.200  3.888E-10
1913.400  4.039E-10
1913.600  3.463E-10
1913.800  3.201E-10
1914.000  3.162E-10
1914.200  2.529E-10
1914.400  3.552E-10
1914.600  3.873E-10
1914.800  3.916E-10
1915.000  3.781E-10
1915.200  3.434E-10
1915.400  3.442E-10
1915.600  3.383E-10
1915.800  3.436E-10
1916.000  3.616E-10
1916.200  3.780E-10
1916.400  4.004E-10
1916.600  3.864E-10
1916.800  4.032E-10
1917.000  4.063E-10
1917.200  3.660E-10
1917.400  3.085E-10
1917.600  2.043E-10
1917.800  2.850E-10
1918.000  3.317E-10
1918.200  3.068E-10
1918.400  3.263E-10
1918.600  2.514E-10
1918.800  3.670E-10
1919.000  3.955E-10
1919.200  3.262E-10
1919.400  3.405E-10
1919.600  3.398E-10
1919.800  3.686E-10
1920.000  3.990E-10
1920.200  3.913E-10
1920.400  2.877E-10
1920.600  3.944E-10
1920.800  3.946E-10
1921.000  3.762E-10
1921.200  3.771E-10
1921.400  3.349E-10
1921.600  3.774E-10
1921.800  3.910E-10
1922.000  3.999E-10
1922.200  3.416E-10
1922.400  3.963E-10
1922.600  4.032E-10
1922.800  3.960E-10
1923.000  2.439E-10
1923.200  2.556E-10
1923.400  2.962E-10
1923.600  3.426E-10
1923.800  3.849E-10
1924.000  3.506E-10
1924.200  3.018E-10
1924.400  3.805E-10
1924.600  3.760E-10
1924.800  3.851E-10
1925.000  4.012E-10
1925.200  4.041E-10
1925.400  3.804E-10
1925.600  3.288E-10
1925.800  3.861E-10
1926.000  3.502E-10
1926.200  2.686E-10
1926.400  2.682E-10
1926.600  3.398E-10
1926.800  3.685E-10
1927.000  3.532E-10
1927.200  3.426E-10
1927.400  3.426E-10
1927.600  3.074E-10
1927.800  3.349E-10
1928.000  3.435E-10
1928.200  3.435E-10
1928.400  1.733E-10
1928.600  2.623E-10
1928.800  2.196E-10
1929.000  2.506E-10
1929.200  3.486E-10
1929.400  3.858E-10
1929.600  2.875E-10
1929.800  2.910E-10
1930.000  3.046E-10
1930.200  3.212E-10
1930.400  3.086E-10
1930.600  3.014E-10
1930.800  3.938E-10
1931.000  3.914E-10
1931.200  3.654E-10
1931.400  3.550E-10
1931.600  3.033E-10
1931.800  3.372E-10
1932.000  3.989E-10
1932.200  4.049E-10
1932.400  4.038E-10
1932.600  3.735E-10
1932.800  3.899E-10
1933.000  3.314E-10
1933.200  3.979E-10
1933.400  3.955E-10
1933.600  3.371E-10
1933.800  3.970E-10
1934.000  4.015E-10
1934.200  4.014E-10
1934.400  3.635E-10
1934.600  3.977E-10
1934.800  3.962E-10
1935.000  3.804E-10
1935.200  3.864E-10
1935.400  3.906E-10
1935.600  3.799E-10
1935.800  3.814E-10
1936.000  3.055E-10
1936.200  2.809E-10
1936.400  2.942E-10
1936.600  3.616E-10
1936.800  3.600E-10
1937.000  3.137E-10
1937.200  2.739E-10
1937.400  2.939E-10
1937.600  2.994E-10
1937.800  3.579E-10
1938.000  3.809E-10
1938.200  3.519E-10
1938.400  3.925E-10
1938.600  3.976E-10
1938.800  3.949E-10
1939.000  2.720E-10
1939.200  3.032E-10
1939.400  3.563E-10
1939.600  3.271E-10
1939.800  3.645E-10
1940.000  3.855E-10
1940.200  3.275E-10
1940.400  3.669E-10
1940.600  3.797E-10
1940.800  2.955E-10
1941.000  3.551E-10
1941.200  3.975E-10
1941.400  3.872E-10
1941.600  3.294E-10
1941.800  3.041E-10
1942.000  3.918E-10
1942.200  3.967E-10
1942.400  3.964E-10
1942.600  3.651E-10
1942.800  3.756E-10
1943.000  3.689E-10
1943.200  3.747E-10
1943.400  3.561E-10
1943.600  2.819E-10
1943.800  3.163E-10
1944.000  3.472E-10
1944.200  3.604E-10
1944.400  3.589E-10
1944.600  3.812E-10
1944.800  3.759E-10
1945.000  3.965E-10
1945.200  3.961E-10
1945.400  3.616E-10
1945.600  3.476E-10
1945.800  3.723E-10
1946.000  3.764E-10
1946.200  3.922E-10
1946.400  3.893E-10
1946.600  3.775E-10
1946.800  3.783E-10
1947.000  3.503E-10
1947.200  3.619E-10
1947.400  3.768E-10
1947.600  3.606E-10
1947.800  3.726E-10
1948.000  3.686E-10
1948.200  3.234E-10
1948.400  3.114E-10
1948.600  3.473E-10
1948.800  3.307E-10
1949.000  3.349E-10
1949.200  3.377E-10
1949.400  3.492E-10
1949.600  3.182E-10
1949.800  2.768E-10
1950.000  3.462E-10
1950.200  3.705E-10
1950.400  3.630E-10
1950.600  3.494E-10
1950.800  3.687E-10
1951.000  3.662E-10
1951.200  2.708E-10
1951.400  3.346E-10
1951.600  3.370E-10
1951.800  3.822E-10
1952.000  3.856E-10
1952.200  3.825E-10
1952.400  3.472E-10
1952.600  2.404E-10
1952.800  2.411E-10
1953.000  3.779E-10
1953.200  3.796E-10
1953.400  2.802E-10
1953.600  2.035E-10
1953.800  3.435E-10
1954.000  3.288E-10
1954.200  2.602E-10
1954.400  2.459E-10
1954.600  3.549E-10
1954.800  3.454E-10
1955.000  2.535E-10
1955.200  3.190E-10
1955.400  3.830E-10
1955.600  3.825E-10
1955.800  3.759E-10
1956.000  2.937E-10
1956.200  2.831E-10
1956.400  3.666E-10
1956.600  3.572E-10
1956.800  3.284E-10
1957.000  3.658E-10
1957.200  3.298E-10
1957.400  3.091E-10
1957.600  3.332E-10
1957.800  3.624E-10
1958.000  3.615E-10
1958.200  3.450E-10
1958.400  3.720E-10
1958.600  3.615E-10
1958.800  2.677E-10
1959.000  3.339E-10
1959.200  3.310E-10
1959.400  3.019E-10
1959.600  2.703E-10
1959.800  3.308E-10
1960.000  3.678E-10
1960.200  3.705E-10
1960.400  2.904E-10
1960.600  3.620E-10
1960.800  3.794E-10
1961.000  3.734E-10
1961.200  2.819E-10
1961.400  2.587E-10
1961.600  3.035E-10
1961.800  3.329E-10
1962.000  3.606E-10
1962.200  3.606E-10
1962.400  3.074E-10
1962.600  3.718E-10
1962.800  3.642E-10
1963.000  2.880E-10
1963.200  2.989E-10
1963.400  3.297E-10
1963.600  3.283E-10
1963.800  3.168E-10
1964.000  3.122E-10
1964.200  2.850E-10
1964.400  1.827E-10
1964.600  3.094E-10
1964.800  3.068E-10
1965.000  3.139E-10
1965.200  3.694E-10
1965.400  3.642E-10
1965.600  3.430E-10
1965.800  3.731E-10
1966.000  3.763E-10
1966.200  3.540E-10
1966.400  3.429E-10
1966.600  3.789E-10
1966.800  3.741E-10
1967.000  3.417E-10
1967.200  3.681E-10
1967.400  3.400E-10
1967.600  3.510E-10
1967.800  3.670E-10
1968.000  3.507E-10
1968.200  3.413E-10
1968.400  3.481E-10
1968.600  3.465E-10
1968.800  2.995E-10
1969.000  3.481E-10
1969.200  3.722E-10
1969.400  3.727E-10
1969.600  3.695E-10
1969.800  3.556E-10
1970.000  3.464E-10
1970.200  3.436E-10
1970.400  3.368E-10
1970.600  3.715E-10
1970.800  3.694E-10
1971.000  3.547E-10
1971.200  3.717E-10
1971.400  3.605E-10
1971.600  3.119E-10
1971.800  3.686E-10
1972.000  3.657E-10
1972.200  3.454E-10
1972.400  3.238E-10
1972.600  3.257E-10
1972.800  3.036E-10
1973.000  3.388E-10
1973.200  3.720E-10
1973.400  3.738E-10
1973.600  3.598E-10
1973.800  3.389E-10
1974.000  3.654E-10
1974.200  3.664E-10
1974.400  3.638E-10
1974.600  3.650E-10
1974.800  3.543E-10
1975.000  3.383E-10
1975.200  3.739E-10
1975.400  3.739E-10
1975.600  3.630E-10
1975.800  3.402E-10
1976.000  3.427E-10
1976.200  3.176E-10
1976.400  3.466E-10
1976.600  3.559E-10
1976.800  3.590E-10
1977.000  3.554E-10
1977.200  3.394E-10
1977.400  3.416E-10
1977.600  3.457E-10
1977.800  3.481E-10
1978.000  3.581E-10
1978.200  3.669E-10
1978.400  3.670E-10
1978.600  3.045E-10
1978.800  3.097E-10
1979.000  3.358E-10
1979.200  2.940E-10
1979.400  3.434E-10
1979.600  3.420E-10
1979.800  3.267E-10
1980.000  3.396E-10
1980.200  3.466E-10
1980.400  3.264E-10
1980.600  3.310E-10
1980.800  3.625E-10
1981.000  3.618E-10
1981.200  3.576E-10
1981.400  3.620E-10
1981.600  3.597E-10
1981.800  3.620E-10
1982.000  3.629E-10
1982.200  3.415E-10
1982.400  3.517E-10
1982.600  3.585E-10
1982.800  3.062E-10
1983.000  2.859E-10
1983.200  3.369E-10
1983.400  3.474E-10
1983.600  3.584E-10
1983.800  2.774E-10
1984.000  3.398E-10
1984.200  3.100E-10
1984.400  2.848E-10
1984.600  2.861E-10
1984.800  3.374E-10
1985.000  3.488E-10
1985.200  3.453E-10
1985.400  3.292E-10
1985.600  3.390E-10
1985.800  3.479E-10
1986.000  3.522E-10
1986.200  3.627E-10
1986.400  3.454E-10
1986.600  3.597E-10
1986.800  3.620E-10
1987.000  3.338E-10
1987.200  3.144E-10
1987.400  3.454E-10
1987.600  3.292E-10
1987.800  2.655E-10
1988.000  2.685E-10
1988.200  3.491E-10
1988.400  3.610E-10
1988.600  3.611E-10
1988.800  3.393E-10
1989.000  3.634E-10
1989.200  3.612E-10
1989.400  3.105E-10
1989.600  3.112E-10
1989.800  3.326E-10
1990.000  3.459E-10
1990.200  2.828E-10
1990.400  3.169E-10
1990.600  3.410E-10
1990.800  3.305E-10
1991.000  3.597E-10
1991.200  3.612E-10
1991.400  3.318E-10
1991.600  3.398E-10
1991.800  2.599E-10
1992.000  3.310E-10
1992.200  2.855E-10
1992.400  2.629E-10
1992.600  2.950E-10
1992.800  3.202E-10
1993.000  2.925E-10
1993.200  3.365E-10
1993.400  3.220E-10
1993.600  3.428E-10
1993.800  3.547E-10
1994.000  3.581E-10
1994.200  3.255E-10
1994.400  2.433E-10
1994.600  3.290E-10
1994.800  3.513E-10
1995.000  3.184E-10
1995.200  3.430E-10
1995.400  3.259E-10
1995.600  2.833E-10
1995.800  3.027E-10
1996.000  3.385E-10
1996.200  3.527E-10
1996.400  3.504E-10
1996.600  2.622E-10
1996.800  3.447E-10
1997.000  3.454E-10
1997.200  3.397E-10
1997.400  3.466E-10
1997.600  3.470E-10
1997.800  3.483E-10
1998.000  3.547E-10
1998.200  3.523E-10
1998.400  3.449E-10
1998.600  3.590E-10
1998.800  3.589E-10
1999.000  3.182E-10
1999.200  3.027E-10
1999.400  3.289E-10
1999.600  3.096E-10
1999.800  2.834E-10
2000.000  2.959E-10
2000.200  2.629E-10
2000.400  2.622E-10
2000.600  3.458E-10
2000.800  3.373E-10
2001.000  3.298E-10
2001.200  3.419E-10
2001.400  3.130E-10
2001.600  3.410E-10
2001.800  3.421E-10
2002.000  2.693E-10
2002.200  2.370E-10
2002.400  3.343E-10
2002.600  3.326E-10
2002.800  3.317E-10
2003.000  3.484E-10
2003.200  3.424E-10
2003.400  2.792E-10
2003.600  3.520E-10
2003.800  3.489E-10
2004.000  3.586E-10
2004.200  3.572E-10
2004.400  3.209E-10
2004.600  3.515E-10
2004.800  3.496E-10
2005.000  3.490E-10
2005.200  3.495E-10
2005.400  3.572E-10
2005.600  3.576E-10
2005.800  2.921E-10
2006.000  3.329E-10
2006.200  3.352E-10
2006.400  2.949E-10
2006.600  3.219E-10
2006.800  3.523E-10
2007.000  3.371E-10
2007.200  3.219E-10
2007.400  3.422E-10
2007.600  3.426E-10
2007.800  3.471E-10
2008.000  3.539E-10
2008.200  3.527E-10
2008.400  3.500E-10
2008.600  3.377E-10
2008.800  3.413E-10
2009.000  3.505E-10
2009.200  3.462E-10
2009.400  3.282E-10
2009.600  3.501E-10
2009.800  3.513E-10
2010.000  3.407E-10
2010.200  3.255E-10
2010.400  3.270E-10
2010.600  3.501E-10
2010.800  3.475E-10
2011.000  3.169E-10
2011.200  3.106E-10
2011.400  3.241E-10
2011.600  3.056E-10
2011.800  3.339E-10
2012.000  3.343E-10
2012.200  3.127E-10
2012.400  2.790E-10
2012.600  2.784E-10
2012.800  3.099E-10
2013.000  3.196E-10
2013.200  3.279E-10
2013.400  3.291E-10
2013.600  3.261E-10
2013.800  3.467E-10
2014.000  3.434E-10
2014.200  3.354E-10
2014.400  3.275E-10
2014.600  3.248E-10
2014.800  3.418E-10
2015.000  3.433E-10
2015.200  3.319E-10
2015.400  2.881E-10
2015.600  2.627E-10
2015.800  2.905E-10
2016.000  2.921E-10
2016.200  3.271E-10
2016.400  3.336E-10
2016.600  3.351E-10
2016.800  3.442E-10
2017.000  3.437E-10
2017.200  3.306E-10
2017.400  3.312E-10
2017.600  3.018E-10
2017.800  3.363E-10
2018.000  3.362E-10
2018.200  3.076E-10
2018.400  3.215E-10
2018.600  3.291E-10
2018.800  3.370E-10
2019.000  3.363E-10
2019.200  3.126E-10
2019.400  2.724E-10
2019.600  3.366E-10
2019.800  3.440E-10
2020.000  3.441E-10
2020.200  3.434E-10
2020.400  3.436E-10
2020.600  3.366E-10
2020.800  3.412E-10
2021.000  3.415E-10
2021.200  3.347E-10
2021.400  3.405E-10
2021.600  3.379E-10
2021.800  3.365E-10
2022.000  3.291E-10
2022.200  3.297E-10
2022.400  3.304E-10
2022.600  3.391E-10
2022.800  3.372E-10
2023.000  3.077E-10
2023.200  3.417E-10
2023.400  3.424E-10
2023.600  3.334E-10
2023.800  3.430E-10
2024.000  3.389E-10
2024.200  3.056E-10
2024.400  3.243E-10
2024.600  3.206E-10
2024.800  3.281E-10
2025.000  3.433E-10
2025.200  3.460E-10
2025.400  3.386E-10
2025.600  3.294E-10
2025.800  3.328E-10
2026.000  3.266E-10
2026.200  2.616E-10
2026.400  2.387E-10
2026.600  3.005E-10
2026.800  2.878E-10
2027.000  3.224E-10
2027.200  3.401E-10
2027.400  3.392E-10
2027.600  3.418E-10
2027.800  3.137E-10
2028.000  3.172E-10
2028.200  3.181E-10
2028.400  3.166E-10
2028.600  3.064E-10
2028.800  2.636E-10
2029.000  2.664E-10
2029.200  3.237E-10
2029.400  3.153E-10
2029.600  3.426E-10
2029.800  3.432E-10
2030.000  3.401E-10
2030.200  3.367E-10
2030.400  3.016E-10
2030.600  3.408E-10
2030.800  3.409E-10
2031.000  3.399E-10
2031.200  3.397E-10
2031.400  3.203E-10
2031.600  2.916E-10
2031.800  3.326E-10
2032.000  3.360E-10
2032.200  3.323E-10
2032.400  3.124E-10
2032.600  3.256E-10
2032.800  3.279E-10
2033.000  3.157E-10
2033.200  3.293E-10
2033.400  3.357E-10
2033.600  3.364E-10
2033.800  3.334E-10
2034.000  3.249E-10
2034.200  3.269E-10
2034.400  2.911E-10
2034.600  3.152E-10
2034.800  3.319E-10
2035.000  3.255E-10
2035.200  2.489E-10
2035.400  2.443E-10
2035.600  2.424E-10
2035.800  2.694E-10
2036.000  2.538E-10
2036.200  2.874E-10
2036.400  3.309E-10
2036.600  3.323E-10
2036.800  2.744E-10
2037.000  3.240E-10
2037.200  3.222E-10
2037.400  3.167E-10
2037.600  3.065E-10
2037.800  2.976E-10
2038.000  2.788E-10
2038.200  2.843E-10
2038.400  2.832E-10
2038.600  3.351E-10
2038.800  3.340E-10
2039.000  3.129E-10
2039.200  3.241E-10
2039.400  2.820E-10
2039.600  2.199E-10
2039.800  2.730E-10
2040.000  3.197E-10
2040.200  3.213E-10
2040.400  2.467E-10
2040.600  3.082E-10
2040.800  3.107E-10
2041.000  3.303E-10
2041.200  3.115E-10
2041.400  2.408E-10
2041.600  2.717E-10
2041.800  3.366E-10
2042.000  3.367E-10
2042.200  3.261E-10
2042.400  3.304E-10
2042.600  3.314E-10
2042.800  3.329E-10
2043.000  3.229E-10
2043.200  3.243E-10
2043.400  3.324E-10
2043.600  3.305E-10
2043.800  3.073E-10
2044.000  3.204E-10
2044.200  3.117E-10
2044.400  3.112E-10
2044.600  3.273E-10
2044.800  3.177E-10
2045.000  2.813E-10
2045.200  2.605E-10
2045.400  2.517E-10
2045.600  2.937E-10
2045.800  2.647E-10
2046.000  3.240E-10
2046.200  3.240E-10
2046.400  3.212E-10
2046.600  3.114E-10
2046.800  2.644E-10
2047.000  3.205E-10
2047.200  3.264E-10
2047.400  3.213E-10
2047.600  2.949E-10
2047.800  3.044E-10
2048.000  2.809E-10
2048.200  3.249E-10
2048.400  3.315E-10
2048.600  3.306E-10
2048.800  3.317E-10
2049.000  3.313E-10
2049.200  3.171E-10
2049.400  3.197E-10
2049.600  3.243E-10
2049.800  2.898E-10
2050.000  3.134E-10
2050.200  2.796E-10
2050.400  2.703E-10
2050.600  2.998E-10
2050.800  3.209E-10
2051.000  3.270E-10
2051.200  3.260E-10
2051.400  3.250E-10
2051.600  2.565E-10
2051.800  3.216E-10
2052.000  3.259E-10
2052.200  3.258E-10
2052.400  3.193E-10
2052.600  3.086E-10
2052.800  2.918E-10
2053.000  2.907E-10
2053.200  2.999E-10
2053.400  3.104E-10
2053.600  3.114E-10
2053.800  3.215E-10
2054.000  3.198E-10
2054.200  3.201E-10
2054.400  2.923E-10
2054.600  3.233E-10
2054.800  3.224E-10
2055.000  3.267E-10
2055.200  3.251E-10
2055.400  2.718E-10
2055.600  3.100E-10
2055.800  3.069E-10
2056.000  3.225E-10
2056.200  3.238E-10
2056.400  3.183E-10
2056.600  2.848E-10
2056.800  2.747E-10
2057.000  2.614E-10
2057.200  3.175E-10
2057.400  3.190E-10
2057.600  2.661E-10
2057.800  2.763E-10
2058.000  2.468E-10
2058.200  3.061E-10
2058.400  3.070E-10
2058.600  3.057E-10
2058.800  2.734E-10
2059.000  2.785E-10
2059.200  2.993E-10
2059.400  2.596E-10
2059.600  3.192E-10
2059.800  3.152E-10
2060.000  3.226E-10
2060.200  3.246E-10
2060.400  3.088E-10
2060.600  2.932E-10
2060.800  3.261E-10
2061.000  3.250E-10
2061.200  3.244E-10
2061.400  3.148E-10
2061.600  3.156E-10
2061.800  3.205E-10
2062.000  3.176E-10
2062.200  3.116E-10
2062.400  2.379E-10
2062.600  2.083E-10
2062.800  2.304E-10
2063.000  2.959E-10
2063.200  3.120E-10
2063.400  3.234E-10
2063.600  3.242E-10
2063.800  3.004E-10
2064.000  2.861E-10
2064.200  2.877E-10
2064.400  3.173E-10
2064.600  3.153E-10
2064.800  3.205E-10
2065.000  3.212E-10
2065.200  3.187E-10
2065.400  3.257E-10
2065.600  3.288E-10
2065.800  3.152E-10
2066.000  2.826E-10
2066.200  2.847E-10
2066.400  2.973E-10
2066.600  2.605E-10
2066.800  3.064E-10
2067.000  3.118E-10
2067.200  2.895E-10
2067.400  3.157E-10
2067.600  3.198E-10
2067.800  3.193E-10
2068.000  3.067E-10
2068.200  2.401E-10
2068.400  2.733E-10
2068.600  3.210E-10
2068.800  3.210E-10
2069.000  2.936E-10
2069.200  2.848E-10
2069.400  3.102E-10
2069.600  3.055E-10
2069.800  2.781E-10
2070.000  3.133E-10
2070.200  3.210E-10
2070.400  3.200E-10
2070.600  3.007E-10
2070.800  3.053E-10
2071.000  3.196E-10
2071.200  3.195E-10
2071.400  2.768E-10
2071.600  3.008E-10
2071.800  2.857E-10
2072.000  3.077E-10
2072.200  3.163E-10
2072.400  3.178E-10
2072.600  3.142E-10
2072.800  2.649E-10
2073.000  2.835E-10
2073.200  3.095E-10
2073.400  3.156E-10
2073.600  2.980E-10
2073.800  3.159E-10
2074.000  3.156E-10
2074.200  2.925E-10
2074.400  3.145E-10
2074.600  3.070E-10
2074.800  3.134E-10
2075.000  3.035E-10
2075.200  3.109E-10
2075.400  3.175E-10
2075.600  3.149E-10
2075.800  3.119E-10
2076.000  2.982E-10
2076.200  3.070E-10
2076.400  3.019E-10
2076.600  3.189E-10
2076.800  3.208E-10
2077.000  3.206E-10
2077.200  2.943E-10
2077.400  3.179E-10
2077.600  3.175E-10
2077.800  2.987E-10
2078.000  2.962E-10
2078.200  2.887E-10
2078.400  3.039E-10
2078.600  2.871E-10
2078.800  3.013E-10
2079.000  2.904E-10
2079.200  2.990E-10
2079.400  2.996E-10
2079.600  2.799E-10
2079.800  2.110E-10
2080.000  2.557E-10
2080.200  2.820E-10
2080.400  3.122E-10
2080.600  3.157E-10
2080.800  3.157E-10
2081.000  3.044E-10
2081.200  2.972E-10
2081.400  3.129E-10
2081.600  3.149E-10
2081.800  3.082E-10
2082.000  2.825E-10
2082.200  3.138E-10
2082.400  3.141E-10
2082.600  3.057E-10
2082.800  3.020E-10
2083.000  3.076E-10
2083.200  2.989E-10
2083.400  3.064E-10
2083.600  3.000E-10
2083.800  2.959E-10
2084.000  2.920E-10
2084.200  2.995E-10
2084.400  2.626E-10
2084.600  3.120E-10
2084.800  3.092E-10
2085.000  2.752E-10
2085.200  1.808E-10
2085.400  2.565E-10
2085.600  2.882E-10
2085.800  2.271E-10
2086.000  3.122E-10
2086.200  3.134E-10
2086.400  3.136E-10
2086.600  3.094E-10
2086.800  2.828E-10
2087.000  2.769E-10
2087.200  3.003E-10
2087.400  2.958E-10
2087.600  3.140E-10
2087.800  3.143E-10
2088.000  2.415E-10
2088.200  3.095E-10
2088.400  3.098E-10
2088.600  3.084E-10
2088.800  2.682E-10
2089.000  3.077E-10
2089.200  3.127E-10
2089.400  3.014E-10
2089.600  2.624E-10
2089.800  2.786E-10
2090.000  2.642E-10
2090.200  3.066E-10
2090.400  3.091E-10
2090.600  3.090E-10
2090.800  3.032E-10
2091.000  1.679E-10
2091.200  2.905E-10
2091.400  3.060E-10
2091.600  3.048E-10
2091.800  2.959E-10
2092.000  2.907E-10
2092.200  2.465E-10
2092.400  2.703E-10
2092.600  2.890E-10
2092.800  2.877E-10
2093.000  2.955E-10
2093.200  3.057E-10
2093.400  3.059E-10
2093.600  2.969E-10
2093.800  2.527E-10
2094.000  3.049E-10
2094.200  3.049E-10
2094.400  2.670E-10
2094.600  2.899E-10
2094.800  2.822E-10
2095.000  2.778E-10
2095.200  3.056E-10
2095.400  3.066E-10
2095.600  2.884E-10
2095.800  2.698E-10
2096.000  2.368E-10
2096.200  2.661E-10
2096.400  2.718E-10
2096.600  2.545E-10
2096.800  2.984E-10
2097.000  2.997E-10
2097.200  2.851E-10
2097.400  2.869E-10
2097.600  2.953E-10
2097.800  3.016E-10
2098.000  3.015E-10
2098.200  2.668E-10
2098.400  1.747E-10
2098.600  1.712E-10
2098.800  2.493E-10
2099.000  3.002E-10
2099.200  3.013E-10
2099.400  3.006E-10
2099.600  2.934E-10
2099.800  2.906E-10
2100.000  2.840E-10
2100.200  2.208E-10
2100.400  2.641E-10
2100.600  2.772E-10
2100.800  2.563E-10
2101.000  2.919E-10
2101.200  2.924E-10
2101.400  2.829E-10
2101.600  2.920E-10
2101.800  2.587E-10
2102.000  2.774E-10
2102.200  3.025E-10
2102.400  3.055E-10
2102.600  3.052E-10
2102.800  3.031E-10
2103.000  3.013E-10
2103.200  2.961E-10
2103.400  3.010E-10
2103.600  3.027E-10
2103.800  3.015E-10
2104.000  2.655E-10
2104.200  2.526E-10
2104.400  2.656E-10
2104.600  2.173E-10
2104.800  2.888E-10
2105.000  3.002E-10
2105.200  3.014E-10
2105.400  3.005E-10
2105.600  2.908E-10
2105.800  2.489E-10
2106.000  2.881E-10
2106.200  2.913E-10
2106.400  2.836E-10
2106.600  3.010E-10
2106.800  2.986E-10
2107.000  2.939E-10
2107.200  2.904E-10
2107.400  3.039E-10
2107.600  3.008E-10
2107.800  3.015E-10
2108.000  3.007E-10
2108.200  2.475E-10
2108.400  2.529E-10
2108.600  2.672E-10
2108.800  2.876E-10
2109.000  2.910E-10
2109.200  3.017E-10
2109.400  3.026E-10
2109.600  2.800E-10
2109.800  2.967E-10
2110.000  3.042E-10
2110.200  3.041E-10
2110.400  2.977E-10
2110.600  3.033E-10
2110.800  3.049E-10
2111.000  3.033E-10
2111.200  2.958E-10
2111.400  3.022E-10
2111.600  3.014E-10
2111.800  2.991E-10
2112.000  3.015E-10
2112.200  3.022E-10
2112.400  3.007E-10
2112.600  2.908E-10
2112.800  2.995E-10
2113.000  3.003E-10
2113.200  2.789E-10
2113.400  2.760E-10
2113.600  2.963E-10
2113.800  2.998E-10
2114.000  2.997E-10
2114.200  2.622E-10
2114.400  2.747E-10
2114.600  2.530E-10
2114.800  2.490E-10
2115.000  2.890E-10
2115.200  2.515E-10
2115.400  2.747E-10
2115.600  2.827E-10
2115.800  2.727E-10
2116.000  2.958E-10
2116.200  2.984E-10
2116.400  2.989E-10
2116.600  2.957E-10
2116.800  2.960E-10
2117.000  2.929E-10
2117.200  2.930E-10
2117.400  2.696E-10
2117.600  2.896E-10
2117.800  2.936E-10
2118.000  2.920E-10
2118.200  2.872E-10
2118.400  2.582E-10
2118.600  2.849E-10
2118.800  2.765E-10
2119.000  2.841E-10
2119.200  2.663E-10
2119.400  2.218E-10
2119.600  2.691E-10
2119.800  2.909E-10
2120.000  2.915E-10
2120.200  2.948E-10
2120.400  2.941E-10
2120.600  2.870E-10
2120.800  2.936E-10
2121.000  2.780E-10
2121.200  2.568E-10
2121.400  2.888E-10
2121.600  2.790E-10
2121.800  2.930E-10
2122.000  2.974E-10
2122.200  2.940E-10
2122.400  2.795E-10
2122.600  2.752E-10
2122.800  2.768E-10
2123.000  2.891E-10
2123.200  2.915E-10
2123.400  2.711E-10
2123.600  2.726E-10
2123.800  2.756E-10
2124.000  2.713E-10
2124.200  2.697E-10
2124.400  2.646E-10
2124.600  2.847E-10
2124.800  2.898E-10
2125.000  2.735E-10
2125.200  2.790E-10
2125.400  2.908E-10
2125.600  2.864E-10
2125.800  2.818E-10
2126.000  2.572E-10
2126.200  2.803E-10
2126.400  2.846E-10
2126.600  2.900E-10
2126.800  2.902E-10
2127.000  2.696E-10
2127.200  2.903E-10
2127.400  2.912E-10
2127.600  2.907E-10
2127.800  2.877E-10
2128.000  2.739E-10
2128.200  2.728E-10
2128.400  2.637E-10
2128.600  2.876E-10
2128.800  2.885E-10
2129.000  2.909E-10
2129.200  2.913E-10
2129.400  2.912E-10
2129.600  2.943E-10
2129.800  2.937E-10
2130.000  2.891E-10
2130.200  2.790E-10
2130.400  2.820E-10
2130.600  2.752E-10
2130.800  2.933E-10
2131.000  2.920E-10
2131.200  2.916E-10
2131.400  2.876E-10
2131.600  2.773E-10
2131.800  2.897E-10
2132.000  2.915E-10
2132.200  2.927E-10
2132.400  2.937E-10
2132.600  2.888E-10
2132.800  2.553E-10
2133.000  2.815E-10
2133.200  2.920E-10
2133.400  2.920E-10
2133.600  2.921E-10
2133.800  2.916E-10
2134.000  2.875E-10
2134.200  2.849E-10
2134.400  2.889E-10
2134.600  2.886E-10
2134.800  2.836E-10
2135.000  2.853E-10
2135.200  2.903E-10
2135.400  2.902E-10
2135.600  2.775E-10
2135.800  2.585E-10
2136.000  2.766E-10
2136.200  2.711E-10
2136.400  2.653E-10
2136.600  2.919E-10
2136.800  2.925E-10
2137.000  2.915E-10
2137.200  2.723E-10
2137.400  2.872E-10
2137.600  2.893E-10
2137.800  2.575E-10
2138.000  2.632E-10
2138.200  2.599E-10
2138.400  2.830E-10
2138.600  2.876E-10
2138.800  2.596E-10
2139.000  2.914E-10
2139.200  2.941E-10
2139.400  2.935E-10
2139.600  2.887E-10
2139.800  2.844E-10
2140.000  2.533E-10
2140.200  2.784E-10
2140.400  2.846E-10
2140.600  2.906E-10
2140.800  2.901E-10
2141.000  2.907E-10
2141.200  2.843E-10
2141.400  2.719E-10
2141.600  2.709E-10
2141.800  2.816E-10
2142.000  2.645E-10
2142.200  2.826E-10
2142.400  2.868E-10
2142.600  2.749E-10
2142.800  2.886E-10
2143.000  2.883E-10
2143.200  2.830E-10
2143.400  2.774E-10
2143.600  2.773E-10
2143.800  2.765E-10
2144.000  2.684E-10
2144.200  2.765E-10
2144.400  2.302E-10
2144.600  2.400E-10
2144.800  2.672E-10
2145.000  2.654E-10
2145.200  2.364E-10
2145.400  2.793E-10
2145.600  2.594E-10
2145.800  2.854E-10
2146.000  2.879E-10
2146.200  2.886E-10
2146.400  2.809E-10
2146.600  2.765E-10
2146.800  2.751E-10
2147.000  2.293E-10
2147.200  2.336E-10
2147.400  2.853E-10
2147.600  2.871E-10
2147.800  2.868E-10
2148.000  2.790E-10
2148.200  2.735E-10
2148.400  2.712E-10
2148.600  2.338E-10
2148.800  2.278E-10
2149.000  2.585E-10
2149.200  2.712E-10
2149.400  2.721E-10
2149.600  2.455E-10
2149.800  2.716E-10
2150.000  2.818E-10
2150.200  2.821E-10
2150.400  2.625E-10
2150.600  2.748E-10
2150.800  2.819E-10
2151.000  2.833E-10
2151.200  2.847E-10
2151.400  2.847E-10
2151.600  2.803E-10
2151.800  2.843E-10
2152.000  2.846E-10
2152.200  2.882E-10
2152.400  2.840E-10
2152.600  2.600E-10
2152.800  2.790E-10
2153.000  2.812E-10
2153.200  2.805E-10
2153.400  2.802E-10
2153.600  2.509E-10
2153.800  2.801E-10
2154.000  2.792E-10
2154.200  2.704E-10
2154.400  2.816E-10
2154.600  2.815E-10
2154.800  2.627E-10
2155.000  2.792E-10
2155.200  2.799E-10
2155.400  2.732E-10
2155.600  2.720E-10
2155.800  2.825E-10
2156.000  2.829E-10
2156.200  2.814E-10
2156.400  2.764E-10
2156.600  2.738E-10
2156.800  2.719E-10
2157.000  2.707E-10
2157.200  2.784E-10
2157.400  2.842E-10
2157.600  2.827E-10
2157.800  2.808E-10
2158.000  2.698E-10
2158.200  2.752E-10
2158.400  2.807E-10
2158.600  2.395E-10
2158.800  2.686E-10
2159.000  2.679E-10
2159.200  2.676E-10
2159.400  2.212E-10
2159.600  2.712E-10
2159.800  2.794E-10
2160.000  2.643E-10
2160.200  2.816E-10
2160.400  2.798E-10
2160.600  2.676E-10
2160.800  2.808E-10
2161.000  2.834E-10
2161.200  2.832E-10
2161.400  2.797E-10
2161.600  2.687E-10
2161.800  2.793E-10
2162.000  2.757E-10
2162.200  2.373E-10
2162.400  2.640E-10
2162.600  2.761E-10
2162.800  2.765E-10
2163.000  2.710E-10
2163.200  2.650E-10
2163.400  2.816E-10
2163.600  2.795E-10
2163.800  2.585E-10
2164.000  2.788E-10
2164.200  2.793E-10
2164.400  2.777E-10
2164.600  2.627E-10
2164.800  2.517E-10
2165.000  2.726E-10
2165.200  2.759E-10
2165.400  2.788E-10
2165.600  2.781E-10
2165.800  2.783E-10
2166.000  2.682E-10
2166.200  2.634E-10
2166.400  2.621E-10
2166.600  2.704E-10
2166.800  2.776E-10
2167.000  2.752E-10
2167.200  2.637E-10
2167.400  2.681E-10
2167.600  2.612E-10
2167.800  2.526E-10
2168.000  2.769E-10
2168.200  2.773E-10
2168.400  2.763E-10
2168.600  2.780E-10
2168.800  2.646E-10
2169.000  2.548E-10
2169.200  2.743E-10
2169.400  2.802E-10
2169.600  2.793E-10
2169.800  2.784E-10
2170.000  2.722E-10
2170.200  2.755E-10
2170.400  2.744E-10
2170.600  2.419E-10
2170.800  2.630E-10
2171.000  2.743E-10
2171.200  2.742E-10
2171.400  2.747E-10
2171.600  2.511E-10
2171.800  2.597E-10
2172.000  2.461E-10
2172.200  2.661E-10
2172.400  2.665E-10
2172.600  2.739E-10
2172.800  2.767E-10
2173.000  2.762E-10
2173.200  2.756E-10
2173.400  2.761E-10
2173.600  2.761E-10
2173.800  2.760E-10
2174.000  2.752E-10
2174.200  2.752E-10
2174.400  2.746E-10
2174.600  2.644E-10
2174.800  2.485E-10
2175.000  2.495E-10
2175.200  2.720E-10
2175.400  2.720E-10
2175.600  2.422E-10
2175.800  2.735E-10
2176.000  2.691E-10
2176.200  2.692E-10
2176.400  2.691E-10
2176.600  2.714E-10
2176.800  2.695E-10
2177.000  2.734E-10
2177.200  2.734E-10
2177.400  2.734E-10
2177.600  2.707E-10
2177.800  2.421E-10
2178.000  2.580E-10
2178.200  2.647E-10
2178.400  2.719E-10
2178.600  2.740E-10
2178.800  2.741E-10
2179.000  2.716E-10
2179.200  2.723E-10
2179.400  2.715E-10
2179.600  2.594E-10
2179.800  2.687E-10
2180.000  2.600E-10
2180.200  2.527E-10
2180.400  2.718E-10
2180.600  2.741E-10
2180.800  2.737E-10
2181.000  2.680E-10
2181.200  2.627E-10
2181.400  2.556E-10
2181.600  2.679E-10
2181.800  2.690E-10
2182.000  2.700E-10
2182.200  2.608E-10
2182.400  2.619E-10
2182.600  2.651E-10
2182.800  2.475E-10
2183.000  2.655E-10
2183.200  2.716E-10
2183.400  2.709E-10
2183.600  2.504E-10
2183.800  2.613E-10
2184.000  2.708E-10
2184.200  2.735E-10
2184.400  2.730E-10
2184.600  2.591E-10
2184.800  2.305E-10
2185.000  2.507E-10
2185.200  2.716E-10
2185.400  2.714E-10
2185.600  2.666E-10
2185.800  2.408E-10
2186.000  2.095E-10
2186.200  2.452E-10
2186.400  2.499E-10
2186.600  2.640E-10
2186.800  2.723E-10
2187.000  2.714E-10
2187.200  2.712E-10
2187.400  2.687E-10
2187.600  2.616E-10
2187.800  2.589E-10
2188.000  2.692E-10
2188.200  2.687E-10
2188.400  2.692E-10
2188.600  2.622E-10
2188.800  2.611E-10
2189.000  2.681E-10
2189.200  2.673E-10
2189.400  2.622E-10
2189.600  2.584E-10
2189.800  2.647E-10
2190.000  2.619E-10
2190.200  2.651E-10
2190.400  2.668E-10
2190.600  2.618E-10
2190.800  2.470E-10
2191.000  2.446E-10
2191.200  2.682E-10
2191.400  2.673E-10
2191.600  2.498E-10
2191.800  2.592E-10
2192.000  2.555E-10
2192.200  2.439E-10
2192.400  2.487E-10
2192.600  2.658E-10
2192.800  2.688E-10
2193.000  2.685E-10
2193.200  2.686E-10
2193.400  2.673E-10
2193.600  2.686E-10
2193.800  2.632E-10
2194.000  2.672E-10
2194.200  2.604E-10
2194.400  2.612E-10
2194.600  2.681E-10
2194.800  2.686E-10
2195.000  2.668E-10
2195.200  2.678E-10
2195.400  2.679E-10
2195.600  2.641E-10
2195.800  2.588E-10
2196.000  2.608E-10
2196.200  2.649E-10
2196.400  2.539E-10
2196.600  2.558E-10
2196.800  2.552E-10
2197.000  2.658E-10
2197.200  2.668E-10
2197.400  2.684E-10
2197.600  2.678E-10
2197.800  2.699E-10
2198.000  2.702E-10
2198.200  2.685E-10
2198.400  2.653E-10
2198.600  2.660E-10
2198.800  2.361E-10
2199.000  2.661E-10
2199.200  2.671E-10
2199.400  2.659E-10
2199.600  2.618E-10
2199.800  2.677E-10
2200.000  2.605E-10
2200.200  2.667E-10
2200.400  2.674E-10
2200.600  2.668E-10
2200.800  2.663E-10
2201.000  2.648E-10
2201.200  2.605E-10
2201.400  2.639E-10
2201.600  2.643E-10
2201.800  2.622E-10
2202.000  2.453E-10
2202.200  2.436E-10
2202.400  2.494E-10
2202.600  2.618E-10
2202.800  2.545E-10
2203.000  2.612E-10
2203.200  2.603E-10
2203.400  2.456E-10
2203.600  2.636E-10
2203.800  2.647E-10
2204.000  2.557E-10
2204.200  2.565E-10
2204.400  2.647E-10
2204.600  2.609E-10
2204.800  2.624E-10
2205.000  2.650E-10
2205.200  2.649E-10
2205.400  2.530E-10
2205.600  2.638E-10
2205.800  2.659E-10
2206.000  2.661E-10
2206.200  2.671E-10
2206.400  2.663E-10
2206.600  2.648E-10
2206.800  2.643E-10
2207.000  2.629E-10
2207.200  2.662E-10
2207.400  2.674E-10
2207.600  2.610E-10
2207.800  2.660E-10
2208.000  2.675E-10
2208.200  2.674E-10
2208.400  2.619E-10
2208.600  2.640E-10
2208.800  2.661E-10
2209.000  2.663E-10
2209.200  2.640E-10
2209.400  2.607E-10
2209.600  2.303E-10
2209.800  2.384E-10
2210.000  2.646E-10
2210.200  2.655E-10
2210.400  2.638E-10
2210.600  2.643E-10
2210.800  2.648E-10
2211.000  2.510E-10
2211.200  2.612E-10
2211.400  2.646E-10
2211.600  2.647E-10
2211.800  2.633E-10
2212.000  2.606E-10
2212.200  2.480E-10
2212.400  2.553E-10
2212.600  2.610E-10
2212.800  2.564E-10
2213.000  2.615E-10
2213.200  2.609E-10
2213.400  2.479E-10
2213.600  2.633E-10
2213.800  2.638E-10
2214.000  2.629E-10
2214.200  2.618E-10
2214.400  2.590E-10
2214.600  2.601E-10
2214.800  2.622E-10
2215.000  2.602E-10
2215.200  2.612E-10
2215.400  2.600E-10
2215.600  2.592E-10
2215.800  2.633E-10
2216.000  2.621E-10
2216.200  2.523E-10
2216.400  2.601E-10
2216.600  2.568E-10
2216.800  2.543E-10
2217.000  2.576E-10
2217.200  2.536E-10
2217.400  2.540E-10
2217.600  2.598E-10
2217.800  2.596E-10
2218.000  2.635E-10
2218.200  2.629E-10
2218.400  2.324E-10
2218.600  2.341E-10
2218.800  2.589E-10
2219.000  2.557E-10
2219.200  2.597E-10
2219.400  2.603E-10
2219.600  2.456E-10
2219.800  2.607E-10
2220.000  2.613E-10
2220.200  2.612E-10
2220.400  2.577E-10
2220.600  2.573E-10
2220.800  2.607E-10
2221.000  2.625E-10
2221.200  2.606E-10
2221.400  2.433E-10
2221.600  2.372E-10
2221.800  2.596E-10
2222.000  2.592E-10
2222.200  2.538E-10
2222.400  2.614E-10
2222.600  2.586E-10
2222.800  2.388E-10
2223.000  2.547E-10
2223.200  2.604E-10
2223.400  2.623E-10
2223.600  2.605E-10
2223.800  2.583E-10
2224.000  2.614E-10
2224.200  2.615E-10
2224.400  2.594E-10
2224.600  2.592E-10
2224.800  2.609E-10
2225.000  2.635E-10
2225.200  2.633E-10
2225.400  2.597E-10
2225.600  2.536E-10
2225.800  2.369E-10
2226.000  2.606E-10
2226.200  2.598E-10
2226.400  2.617E-10
2226.600  2.613E-10
2226.800  2.609E-10
2227.000  2.606E-10
2227.200  2.577E-10
2227.400  2.564E-10
2227.600  2.172E-10
2227.800  2.466E-10
2228.000  2.563E-10
2228.200  2.557E-10
2228.400  2.358E-10
2228.600  2.478E-10
2228.800  2.461E-10
2229.000  2.584E-10
2229.200  2.579E-10
2229.400  2.454E-10
2229.600  2.491E-10
2229.800  2.478E-10
2230.000  2.524E-10
2230.200  2.289E-10
2230.400  2.526E-10
2230.600  2.512E-10
2230.800  2.570E-10
2231.000  2.593E-10
2231.200  2.594E-10
2231.400  2.557E-10
2231.600  2.555E-10
2231.800  2.572E-10
2232.000  2.565E-10
2232.200  2.560E-10
2232.400  2.539E-10
2232.600  2.395E-10
2232.800  2.492E-10
2233.000  2.562E-10
2233.200  2.522E-10
2233.400  2.263E-10
2233.600  2.304E-10
2233.800  2.471E-10
2234.000  2.498E-10
2234.200  2.494E-10
2234.400  2.451E-10
2234.600  2.028E-10
2234.800  2.460E-10
2235.000  2.490E-10
2235.200  2.525E-10
2235.400  2.522E-10
2235.600  2.544E-10
2235.800  2.548E-10
2236.000  2.539E-10
2236.200  2.546E-10
2236.400  2.546E-10
2236.600  2.393E-10
2236.800  2.001E-10
2237.000  2.525E-10
2237.200  2.530E-10
2237.400  2.526E-10
2237.600  2.491E-10
2237.800  2.497E-10
2238.000  2.519E-10
2238.200  2.524E-10
2238.400  2.476E-10
2238.600  2.304E-10
2238.800  2.397E-10
2239.000  2.292E-10
2239.200  2.336E-10
2239.400  2.525E-10
2239.600  2.532E-10
2239.800  2.522E-10
2240.000  2.515E-10
2240.200  2.513E-10
2240.400  2.511E-10
2240.600  2.520E-10
2240.800  2.533E-10
2241.000  2.530E-10
2241.200  2.535E-10
2241.400  2.527E-10
2241.600  2.513E-10
2241.800  2.525E-10
2242.000  2.527E-10
2242.200  2.509E-10
2242.400  2.398E-10
2242.600  2.429E-10
2242.800  2.488E-10
2243.000  2.499E-10
2243.200  2.522E-10
2243.400  2.527E-10
2243.600  2.516E-10
2243.800  2.528E-10
2244.000  2.527E-10
2244.200  2.482E-10
2244.400  2.413E-10
2244.600  2.457E-10
2244.800  2.410E-10
2245.000  2.156E-10
2245.200  2.140E-10
2245.400  2.451E-10
2245.600  2.512E-10
2245.800  2.489E-10
2246.000  2.504E-10
2246.200  2.508E-10
2246.400  2.434E-10
2246.600  2.369E-10
2246.800  2.512E-10
2247.000  2.516E-10
2247.200  2.515E-10
2247.400  2.505E-10
2247.600  2.510E-10
2247.800  2.487E-10
2248.000  2.523E-10
2248.200  2.522E-10
2248.400  2.515E-10
2248.600  2.328E-10
2248.800  2.481E-10
2249.000  2.505E-10
2249.200  2.522E-10
2249.400  2.519E-10
2249.600  2.507E-10
2249.800  2.394E-10
2250.000  2.351E-10
2250.200  2.489E-10
2250.400  2.506E-10
2250.600  2.494E-10
2250.800  2.469E-10
2251.000  2.391E-10
2251.200  2.451E-10
2251.400  2.469E-10
2251.600  2.487E-10
2251.800  2.488E-10
2252.000  2.383E-10
2252.200  2.371E-10
2252.400  2.149E-10
2252.600  2.453E-10
2252.800  2.373E-10
2253.000  2.297E-10
2253.200  2.263E-10
2253.400  2.420E-10
2253.600  2.441E-10
2253.800  2.412E-10
2254.000  2.462E-10
2254.200  2.497E-10
2254.400  2.498E-10
2254.600  2.440E-10
2254.800  2.446E-10
2255.000  2.469E-10
2255.200  2.483E-10
2255.400  2.499E-10
2255.600  2.497E-10
2255.800  2.494E-10
2256.000  2.496E-10
2256.200  2.484E-10
2256.400  2.392E-10
2256.600  2.375E-10
2256.800  2.336E-10
2257.000  2.428E-10
2257.200  2.483E-10
2257.400  2.482E-10
2257.600  2.308E-10
2257.800  2.446E-10
2258.000  2.486E-10
2258.200  2.475E-10
2258.400  1.969E-10
2258.600  2.413E-10
2258.800  2.377E-10
2259.000  2.364E-10
2259.200  2.466E-10
2259.400  2.464E-10
2259.600  2.367E-10
2259.800  2.458E-10
2260.000  2.413E-10
2260.200  2.426E-10
2260.400  2.440E-10
2260.600  2.453E-10
2260.800  2.419E-10
2261.000  2.334E-10
2261.200  2.433E-10
2261.400  2.409E-10
2261.600  2.432E-10
2261.800  2.450E-10
2262.000  2.420E-10
2262.200  2.401E-10
2262.400  2.341E-10
2262.600  2.168E-10
2262.800  2.458E-10
2263.000  2.470E-10
2263.200  2.471E-10
2263.400  2.469E-10
2263.600  2.333E-10
2263.800  2.430E-10
2264.000  2.472E-10
2264.200  2.477E-10
2264.400  2.473E-10
2264.600  2.486E-10
2264.800  2.484E-10
2265.000  2.467E-10
2265.200  2.441E-10
2265.400  2.414E-10
2265.600  2.460E-10
2265.800  2.334E-10
2266.000  2.453E-10
2266.200  2.471E-10
2266.400  2.474E-10
2266.600  2.465E-10
2266.800  2.472E-10
2267.000  2.477E-10
2267.200  2.475E-10
2267.400  2.457E-10
2267.600  2.447E-10
2267.800  2.469E-10
2268.000  2.463E-10
2268.200  2.463E-10
2268.400  2.294E-10
2268.600  2.447E-10
2268.800  2.441E-10
2269.000  2.440E-10
2269.200  2.424E-10
2269.400  2.454E-10
2269.600  2.440E-10
2269.800  2.469E-10
2270.000  2.469E-10
2270.200  2.450E-10
2270.400  2.448E-10
2270.600  2.448E-10
2270.800  2.444E-10
2271.000  2.401E-10
2271.200  2.322E-10
2271.400  2.419E-10
2271.600  2.454E-10
2271.800  2.460E-10
2272.000  2.393E-10
2272.200  2.429E-10
2272.400  2.436E-10
2272.600  2.439E-10
2272.800  2.464E-10
2273.000  2.452E-10
2273.200  2.443E-10
2273.400  2.435E-10
2273.600  2.389E-10
2273.800  2.417E-10
2274.000  2.421E-10
2274.200  2.348E-10
2274.400  2.424E-10
2274.600  2.449E-10
2274.800  2.422E-10
2275.000  2.447E-10
2275.200  2.451E-10
2275.400  2.451E-10
2275.600  2.459E-10
2275.800  2.458E-10
2276.000  2.431E-10
2276.200  2.352E-10
2276.400  2.211E-10
2276.600  2.458E-10
2276.800  2.456E-10
2277.000  2.440E-10
2277.200  2.411E-10
2277.400  2.220E-10
2277.600  2.379E-10
2277.800  2.328E-10
2278.000  2.388E-10
2278.200  2.371E-10
2278.400  2.265E-10
2278.600  2.386E-10
2278.800  2.393E-10
2279.000  2.425E-10
2279.200  2.419E-10
2279.400  2.389E-10
2279.600  2.399E-10
2279.800  2.432E-10
2280.000  2.439E-10
2280.200  2.437E-10
2280.400  2.435E-10
2280.600  2.440E-10
2280.800  2.439E-10
2281.000  2.437E-10
2281.200  2.428E-10
2281.400  2.420E-10
2281.600  2.427E-10
2281.800  2.457E-10
2282.000  2.464E-10
2282.200  2.448E-10
2282.400  2.448E-10
2282.600  2.448E-10
2282.800  2.439E-10
2283.000  2.424E-10
2283.200  2.409E-10
2283.400  2.416E-10
2283.600  2.464E-10
2283.800  2.461E-10
2284.000  2.445E-10
2284.200  2.442E-10
2284.400  2.402E-10
2284.600  2.359E-10
2284.800  2.403E-10
2285.000  2.436E-10
2285.200  2.397E-10
2285.400  2.254E-10
2285.600  2.381E-10
2285.800  2.341E-10
2286.000  2.402E-10
2286.200  2.445E-10
2286.400  2.438E-10
2286.600  2.429E-10
2286.800  2.437E-10
2287.000  2.438E-10
2287.200  2.440E-10
2287.400  2.407E-10
2287.600  2.334E-10
2287.800  2.380E-10
2288.000  2.218E-10
2288.200  2.414E-10
2288.400  2.440E-10
2288.600  2.415E-10
2288.800  2.452E-10
2289.000  2.468E-10
2289.200  2.470E-10
2289.400  2.452E-10
2289.600  2.433E-10
2289.800  2.457E-10
2290.000  2.448E-10
2290.200  2.311E-10
2290.400  2.446E-10
2290.600  2.456E-10
2290.800  2.447E-10
2291.000  2.415E-10
2291.200  2.425E-10
2291.400  2.425E-10
2291.600  2.138E-10
2291.800  2.400E-10
2292.000  2.438E-10
2292.200  2.436E-10
2292.400  2.420E-10
2292.600  2.384E-10
2292.800  2.354E-10
2293.000  2.386E-10
2293.200  2.401E-10
2293.400  2.394E-10
2293.600  2.388E-10
2293.800  2.382E-10
2294.000  2.159E-10
2294.200  2.248E-10
2294.400  2.382E-10
2294.600  2.396E-10
2294.800  2.404E-10
2295.000  2.403E-10
2295.200  2.384E-10
2295.400  2.381E-10
2295.600  2.374E-10
2295.800  2.352E-10
2296.000  2.374E-10
2296.200  2.364E-10
2296.400  2.246E-10
2296.600  2.137E-10
2296.800  1.976E-10
2297.000  2.209E-10
2297.200  2.189E-10
2297.400  2.065E-10
2297.600  1.774E-10
2297.800  8.367E-11
2298.000  1.687E-10
2298.200  2.030E-10
2298.400  2.170E-10
2298.600  2.226E-10
2298.800  2.209E-10
2299.000  2.313E-10
2299.200  2.320E-10
2299.400  2.347E-10
2299.600  2.363E-10
2299.800  2.374E-10
2300.000  2.373E-10
2300.200  2.369E-10
2300.400  2.350E-10
2300.600  2.350E-10
2300.800  2.344E-10
2301.000  2.340E-10
2301.200  2.241E-10
2301.400  2.125E-10
2301.600  2.323E-10
2301.800  2.302E-10
2302.000  2.372E-10
2302.200  2.373E-10
2302.400  2.364E-10
2302.600  2.363E-10
2302.800  2.345E-10
2303.000  2.326E-10
2303.200  2.336E-10
2303.400  2.329E-10
2303.600  2.319E-10
2303.800  2.108E-10
2304.000  2.185E-10
2304.200  2.180E-10
2304.400  2.308E-10
2304.600  2.331E-10
2304.800  2.327E-10
2305.000  2.328E-10
2305.200  2.313E-10
2305.400  2.311E-10
2305.600  2.320E-10
2305.800  2.314E-10
2306.000  2.312E-10
2306.200  2.318E-10
2306.400  2.331E-10
2306.600  2.329E-10
2306.800  2.311E-10
2307.000  2.326E-10
2307.200  2.324E-10
2307.400  2.293E-10
2307.600  2.239E-10
2307.800  2.314E-10
2308.000  2.321E-10
2308.200  2.314E-10
2308.400  2.322E-10
2308.600  2.320E-10
2308.800  2.309E-10
2309.000  2.279E-10
2309.200  2.239E-10
2309.400  2.312E-10
2309.600  2.316E-10
2309.800  2.309E-10
2310.000  2.333E-10
2310.200  2.330E-10
2310.400  2.308E-10
2310.600  2.313E-10
2310.800  2.312E-10
2311.000  2.214E-10
2311.200  2.327E-10
2311.400  2.327E-10
2311.600  2.319E-10
2311.800  2.300E-10
2312.000  2.296E-10
2312.200  2.283E-10
2312.400  2.286E-10
2312.600  2.311E-10
2312.800  2.333E-10
2313.000  2.306E-10
2313.200  2.298E-10
2313.400  2.307E-10
2313.600  2.255E-10
2313.800  2.266E-10
2314.000  2.288E-10
2314.200  2.294E-10
2314.400  2.290E-10
2314.600  2.289E-10
2314.800  2.275E-10
2315.000  2.278E-10
2315.200  2.296E-10
2315.400  2.292E-10
2315.600  2.140E-10
2315.800  2.322E-10
2316.000  2.321E-10
2316.200  2.282E-10
2316.400  2.281E-10
2316.600  2.164E-10
2316.800  2.245E-10
2317.000  2.187E-10
2317.200  2.290E-10
2317.400  2.283E-10
2317.600  2.278E-10
2317.800  2.272E-10
2318.000  2.262E-10
2318.200  2.249E-10
2318.400  2.253E-10
2318.600  2.295E-10
2318.800  2.292E-10
2319.000  2.194E-10
2319.200  2.258E-10
2319.400  2.262E-10
2319.600  2.310E-10
2319.800  2.311E-10
2320.000  1.960E-10
2320.200  1.979E-10
2320.400  2.090E-10
2320.600  2.251E-10
2320.800  2.307E-10
2321.000  2.308E-10
2321.200  2.310E-10
2321.400  2.318E-10
2321.600  2.326E-10
2321.800  2.318E-10
2322.000  2.316E-10
2322.200  2.299E-10
2322.400  2.287E-10
2322.600  2.058E-10
2322.800  2.189E-10
2323.000  2.167E-10
2323.200  2.017E-10
2323.400  2.160E-10
2323.600  2.289E-10
2323.800  2.287E-10
2324.000  2.282E-10
2324.200  2.234E-10
2324.400  2.306E-10
2324.600  2.304E-10
2324.800  2.239E-10
2325.000  2.286E-10
2325.200  2.275E-10
2325.400  2.250E-10
2325.600  2.278E-10
2325.800  1.968E-10
2326.000  2.235E-10
2326.200  2.267E-10
2326.400  2.266E-10
2326.600  2.251E-10
2326.800  2.262E-10
2327.000  2.286E-10
2327.200  2.275E-10
2327.400  2.281E-10
2327.600  2.288E-10
2327.800  2.190E-10
2328.000  2.263E-10
2328.200  2.276E-10
2328.400  2.219E-10
2328.600  2.137E-10
2328.800  2.144E-10
2329.000  2.105E-10
2329.200  2.179E-10
2329.400  2.271E-10
2329.600  2.274E-10
2329.800  2.273E-10
2330.000  2.275E-10
2330.200  2.247E-10
2330.400  2.234E-10
2330.600  2.218E-10
2330.800  2.066E-10
2331.000  2.221E-10
2331.200  2.247E-10
2331.400  2.233E-10
2331.600  2.239E-10
2331.800  2.235E-10
2332.000  2.230E-10
2332.200  2.145E-10
2332.400  1.719E-10
2332.600  2.109E-10
2332.800  2.249E-10
2333.000  2.269E-10
2333.200  2.275E-10
2333.400  2.175E-10
2333.600  2.124E-10
2333.800  2.171E-10
2334.000  2.191E-10
2334.200  2.236E-10
2334.400  2.235E-10
2334.600  2.224E-10
2334.800  2.230E-10
2335.000  2.223E-10
2335.200  2.194E-10
2335.400  2.245E-10
2335.600  2.345E-10
2335.800  2.384E-10
2336.000  2.345E-10
2336.200  2.283E-10
2336.400  2.294E-10
2336.600  2.297E-10
2336.800  2.283E-10
2337.000  2.290E-10
2337.200  2.235E-10
2337.400  2.235E-10
2337.600  2.246E-10
2337.800  2.253E-10
2338.000  2.257E-10
2338.200  2.240E-10
2338.400  2.249E-10
2338.600  2.247E-10
2338.800  2.292E-10
2339.000  2.271E-10
2339.200  2.271E-10
2339.400  2.274E-10
2339.600  2.280E-10
2339.800  2.286E-10
2340.000  2.265E-10
2340.200  2.287E-10
2340.400  2.278E-10
2340.600  2.299E-10
2340.800  2.203E-10
2341.000  2.281E-10
2341.200  2.254E-10
2341.400  1.980E-10
2341.600  2.269E-10
2341.800  2.258E-10
2342.000  2.271E-10
2342.200  2.293E-10
2342.400  2.293E-10
2342.600  2.258E-10
2342.800  2.241E-10
2343.000  2.269E-10
2343.200  2.242E-10
2343.400  2.229E-10
2343.600  2.252E-10
2343.800  2.250E-10
2344.000  2.235E-10
2344.200  2.163E-10
2344.400  1.054E-10
2344.600  2.257E-10
2344.800  2.211E-10
2345.000  2.268E-10
2345.200  2.214E-10
2345.400  2.274E-10
2345.600  2.296E-10
2345.800  2.294E-10
2346.000  2.250E-10
2346.200  2.238E-10
2346.400  2.187E-10
2346.600  2.181E-10
2346.800  2.212E-10
2347.000  2.218E-10
2347.200  2.212E-10
2347.400  2.207E-10
2347.600  2.209E-10
2347.800  1.960E-10
2348.000  2.226E-10
2348.200  2.320E-10
2348.400  2.318E-10
2348.600  2.321E-10
2348.800  2.330E-10
2349.000  2.280E-10
2349.200  2.125E-10
2349.400  2.252E-10
2349.600  2.254E-10
2349.800  2.237E-10
2350.000  2.248E-10
2350.200  2.200E-10
2350.400  2.207E-10
2350.600  2.208E-10
2350.800  2.218E-10
2351.000  2.214E-10
2351.200  2.212E-10
2351.400  2.211E-10
2351.600  2.230E-10
2351.800  2.234E-10
2352.000  2.168E-10
2352.200  2.197E-10
2352.400  2.238E-10
2352.600  2.234E-10
2352.800  2.269E-10
2353.000  2.257E-10
2353.200  2.219E-10
2353.400  2.219E-10
2353.600  2.133E-10
2353.800  2.211E-10
2354.000  2.202E-10
2354.200  2.207E-10
2354.400  2.194E-10
2354.600  2.188E-10
2354.800  2.218E-10
2355.000  2.273E-10
2355.200  2.260E-10
2355.400  2.144E-10
2355.600  2.180E-10
2355.800  2.180E-10
2356.000  2.284E-10
2356.200  2.242E-10
2356.400  2.245E-10
2356.600  2.247E-10
2356.800  2.220E-10
2357.000  2.198E-10
2357.200  2.185E-10
2357.400  2.229E-10
2357.600  2.220E-10
2357.800  2.219E-10
2358.000  2.181E-10
2358.200  2.157E-10
2358.400  2.234E-10
2358.600  2.238E-10
2358.800  2.194E-10
2359.000  2.200E-10
2359.200  2.222E-10
2359.400  2.228E-10
2359.600  2.221E-10
2359.800  2.233E-10
2360.000  2.217E-10
2360.200  2.253E-10
2360.400  2.246E-10
2360.600  2.234E-10
2360.800  2.237E-10
2361.000  2.195E-10
2361.200  2.195E-10
2361.400  2.207E-10
2361.600  2.225E-10
2361.800  2.241E-10
2362.000  2.291E-10
2362.200  2.276E-10
2362.400  2.272E-10
2362.600  2.261E-10
2362.800  2.269E-10
2363.000  2.242E-10
2363.200  2.271E-10
2363.400  2.151E-10
2363.600  2.223E-10
2363.800  2.277E-10
2364.000  2.159E-10
2364.200  2.201E-10
2364.400  2.177E-10
2364.600  2.201E-10
2364.800  2.163E-10
2365.000  2.212E-10
2365.200  2.202E-10
2365.400  2.189E-10
2365.600  2.185E-10
2365.800  2.160E-10
2366.000  2.161E-10
2366.200  2.171E-10
2366.400  2.156E-10
2366.600  2.202E-10
2366.800  2.151E-10
2367.000  2.219E-10
2367.200  2.216E-10
2367.400  2.171E-10
2367.600  2.194E-10
2367.800  2.201E-10
2368.000  2.200E-10
2368.200  2.219E-10
2368.400  2.216E-10
2368.600  2.244E-10
2368.800  2.251E-10
2369.000  2.249E-10
2369.200  2.237E-10
2369.400  2.285E-10
2369.600  2.262E-10
2369.800  2.258E-10
2370.000  2.226E-10
2370.200  2.249E-10
2370.400  2.212E-10
2370.600  2.215E-10
2370.800  2.210E-10
2371.000  2.182E-10
2371.200  2.186E-10
2371.400  2.183E-10
2371.600  2.195E-10
2371.800  2.185E-10
2372.000  2.119E-10
2372.200  2.213E-10
2372.400  2.188E-10
2372.600  2.195E-10
2372.800  2.174E-10
2373.000  2.172E-10
2373.200  2.161E-10
2373.400  2.148E-10
2373.600  2.184E-10
2373.800  2.199E-10
2374.000  2.201E-10
2374.200  2.197E-10
2374.400  2.203E-10
2374.600  1.908E-10
2374.800  1.812E-10
2375.000  2.179E-10
2375.200  2.158E-10
2375.400  2.174E-10
2375.600  2.147E-10
2375.800  2.143E-10
2376.000  2.062E-10
2376.200  2.156E-10
2376.400  2.149E-10
2376.600  2.204E-10
2376.800  2.210E-10
2377.000  2.200E-10
2377.200  2.188E-10
2377.400  2.132E-10
2377.600  2.063E-10
2377.800  2.166E-10
2378.000  2.179E-10
2378.200  2.197E-10
2378.400  2.208E-10
2378.600  2.202E-10
2378.800  2.156E-10
2379.000  2.187E-10
2379.200  2.179E-10
2379.400  2.187E-10
2379.600  2.170E-10
2379.800  2.172E-10
2380.000  2.156E-10
2380.200  2.152E-10
2380.400  2.141E-10
2380.600  2.146E-10
2380.800  2.166E-10
2381.000  2.155E-10
2381.200  2.143E-10
2381.400  2.168E-10
2381.600  2.151E-10
2381.800  2.194E-10
2382.000  2.190E-10
2382.200  2.154E-10
2382.400  2.157E-10
2382.600  2.146E-10
2382.800  1.934E-10
2383.000  2.778E-11
2383.200  2.180E-10
2383.400  2.180E-10
2383.600  2.195E-10
2383.800  2.198E-10
2384.000  2.199E-10
2384.200  2.179E-10
2384.400  2.197E-10
2384.600  2.189E-10
2384.800  2.154E-10
2385.000  2.184E-10
2385.200  2.165E-10
2385.400  2.157E-10
2385.600  2.180E-10
2385.800  2.092E-10
2386.000  2.150E-10
2386.200  2.145E-10
2386.400  2.154E-10
2386.600  2.151E-10
2386.800  2.177E-10
2387.000  2.172E-10
2387.200  2.154E-10
2387.400  2.138E-10
2387.600  2.127E-10
2387.800  2.144E-10
2388.000  2.063E-10
2388.200  2.138E-10
2388.400  2.156E-10
2388.600  2.159E-10
2388.800  2.150E-10
2389.000  2.185E-10
2389.200  2.141E-10
2389.400  2.126E-10
2389.600  2.003E-10
2389.800  2.107E-10
2390.000  2.037E-10
2390.200  2.190E-10
2390.400  2.187E-10
2390.600  2.105E-10
2390.800  2.222E-10
2391.000  2.256E-10
2391.200  2.150E-10
2391.400  2.185E-10
2391.600  2.176E-10
2391.800  2.164E-10
2392.000  2.174E-10
2392.200  2.129E-10
2392.400  2.109E-10
2392.600  2.147E-10
2392.800  2.165E-10
2393.000  2.114E-10
2393.200  2.120E-10
2393.400  2.139E-10
2393.600  2.168E-10
2393.800  2.167E-10
2394.000  2.143E-10
2394.200  2.134E-10
2394.400  2.143E-10
2394.600  2.088E-10
2394.800  2.132E-10
2395.000  2.130E-10
2395.200  2.122E-10
2395.400  2.113E-10
2395.600  2.105E-10
2395.800  2.119E-10
2396.000  2.147E-10
2396.200  2.130E-10
2396.400  2.091E-10
2396.600  2.003E-10
2396.800  2.137E-10
2397.000  2.133E-10
2397.200  2.120E-10
2397.400  2.109E-10
2397.600  2.130E-10
2397.800  2.098E-10
2398.000  2.123E-10
2398.200  2.117E-10
2398.400  2.120E-10
2398.600  2.126E-10
2398.800  2.132E-10
2399.000  2.146E-10
2399.200  2.138E-10
2399.400  2.095E-10
2399.600  2.110E-10
2399.800  2.085E-10
2400.000  2.086E-10
2400.200  1.850E-10
2400.400  2.123E-10
2400.600  2.097E-10
2400.800  2.122E-10
2401.000  2.121E-10
2401.200  2.093E-10
2401.400  2.118E-10
2401.600  2.125E-10
2401.800  2.128E-10
2402.000  2.118E-10
2402.200  2.116E-10
2402.400  2.091E-10
2402.600  2.089E-10
2402.800  2.075E-10
2403.000  2.077E-10
2403.200  1.988E-10
2403.400  2.087E-10
2403.600  2.089E-10
2403.800  2.039E-10
2404.000  2.124E-10
2404.200  2.139E-10
2404.400  2.067E-10
2404.600  2.096E-10
2404.800  2.102E-10
2405.000  2.071E-10
2405.200  2.082E-10
2405.400  2.088E-10
2405.600  2.119E-10
2405.800  2.106E-10
2406.000  2.098E-10
2406.200  2.109E-10
2406.400  2.101E-10
2406.600  2.116E-10
2406.800  2.094E-10
2407.000  2.098E-10
2407.200  2.090E-10
2407.400  2.033E-10
2407.600  2.041E-10
2407.800  2.110E-10
2408.000  2.097E-10
2408.200  2.084E-10
2408.400  2.076E-10
2408.600  2.101E-10
2408.800  2.101E-10
2409.000  2.048E-10
2409.200  2.096E-10
2409.400  2.091E-10
2409.600  2.088E-10
2409.800  2.098E-10
2410.000  2.107E-10
2410.200  2.078E-10
2410.400  2.075E-10
2410.600  2.079E-10
2410.800  2.083E-10
2411.000  2.089E-10
2411.200  2.077E-10
2411.400  2.087E-10
2411.600  2.117E-10
2411.800  2.114E-10
2412.000  2.060E-10
2412.200  2.096E-10
2412.400  2.104E-10
2412.600  2.090E-10
2412.800  2.114E-10
2413.000  2.118E-10
2413.200  2.108E-10
2413.400  2.097E-10
2413.600  2.132E-10
2413.800  2.156E-10
2414.000  2.118E-10
2414.200  2.100E-10
2414.400  2.093E-10
2414.600  2.083E-10
2414.800  2.102E-10
2415.000  2.041E-10
2415.200  2.090E-10
2415.400  2.089E-10
2415.600  2.093E-10
2415.800  2.104E-10
2416.000  2.089E-10
2416.200  2.082E-10
2416.400  2.104E-10
2416.600  2.085E-10
2416.800  2.066E-10
2417.000  2.057E-10
2417.200  2.084E-10
2417.400  2.083E-10
2417.600  2.096E-10
2417.800  2.069E-10
2418.000  2.065E-10
2418.200  2.086E-10
2418.400  2.096E-10
2418.600  2.104E-10
2418.800  2.086E-10
2419.000  2.102E-10
2419.200  2.096E-10
2419.400  2.041E-10
2419.600  2.062E-10
2419.800  2.061E-10
2420.000  2.090E-10
2420.200  2.112E-10
2420.400  2.105E-10
2420.600  2.096E-10
2420.800  2.062E-10
2421.000  2.065E-10
2421.200  2.073E-10
2421.400  2.033E-10
2421.600  2.105E-10
2421.800  2.105E-10
2422.000  2.106E-10
2422.200  2.100E-10
2422.400  2.032E-10
2422.600  2.079E-10
2422.800  2.079E-10
2423.000  2.072E-10
2423.200  2.071E-10
2423.400  2.071E-10
2423.600  2.056E-10
2423.800  2.048E-10
2424.000  2.031E-10
2424.200  2.052E-10
2424.400  2.058E-10
2424.600  2.020E-10
2424.800  2.047E-10
2425.000  2.004E-10
2425.200  1.993E-10
2425.400  2.056E-10
2425.600  2.051E-10
2425.800  2.068E-10
2426.000  2.073E-10
2426.200  2.066E-10
2426.400  2.055E-10
2426.600  2.043E-10
2426.800  2.080E-10
2427.000  2.092E-10
2427.200  2.082E-10
2427.400  2.062E-10
2427.600  2.068E-10
2427.800  2.072E-10
2428.000  2.063E-10
2428.200  2.045E-10
2428.400  2.081E-10
2428.600  2.092E-10
2428.800  2.090E-10
2429.000  2.074E-10
2429.200  2.079E-10
2429.400  2.068E-10
2429.600  2.089E-10
2429.800  1.994E-10
2430.000  2.024E-10
2430.200  2.058E-10
2430.400  2.056E-10
2430.600  2.066E-10
2430.800  1.943E-10
2431.000  2.007E-10
2431.200  2.065E-10
2431.400  2.081E-10
2431.600  2.080E-10
2431.800  2.058E-10
2432.000  2.078E-10
2432.200  2.064E-10
2432.400  2.063E-10
2432.600  2.050E-10
2432.800  2.061E-10
2433.000  2.052E-10
2433.200  1.980E-10
2433.400  2.054E-10
2433.600  2.062E-10
2433.800  2.016E-10
2434.000  1.924E-10
2434.200  2.067E-10
2434.400  2.058E-10
2434.600  2.029E-10
2434.800  2.044E-10
2435.000  2.041E-10
2435.200  1.978E-10
2435.400  2.045E-10
2435.600  2.041E-10
2435.800  1.897E-10
2436.000  2.037E-10
2436.200  2.039E-10
2436.400  2.047E-10
2436.600  2.041E-10
2436.800  2.051E-10
2437.000  2.048E-10
2437.200  2.039E-10
2437.400  2.071E-10
2437.600  2.046E-10
2437.800  2.066E-10
2438.000  2.066E-10
2438.200  2.059E-10
2438.400  2.063E-10
2438.600  2.030E-10
2438.800  2.045E-10
2439.000  2.037E-10
2439.200  2.024E-10
2439.400  2.052E-10
2439.600  2.050E-10
2439.800  2.063E-10
2440.000  2.065E-10
2440.200  2.035E-10
2440.400  2.054E-10
2440.600  2.044E-10
2440.800  2.032E-10
2441.000  2.010E-10
2441.200  2.008E-10
2441.400  1.996E-10
2441.600  2.002E-10
2441.800  2.039E-10
2442.000  2.043E-10
2442.200  2.026E-10
2442.400  2.056E-10
2442.600  2.073E-10
2442.800  2.075E-10
2443.000  2.036E-10
2443.200  2.041E-10
2443.400  2.051E-10
2443.600  2.055E-10
2443.800  2.062E-10
2444.000  2.060E-10
2444.200  2.049E-10
2444.400  2.045E-10
2444.600  2.036E-10
2444.800  2.046E-10
2445.000  2.053E-10
2445.200  2.031E-10
2445.400  2.044E-10
2445.600  2.070E-10
2445.800  2.064E-10
2446.000  2.062E-10
2446.200  2.060E-10
2446.400  2.039E-10
2446.600  2.002E-10
2446.800  1.992E-10
2447.000  2.030E-10
2447.200  2.037E-10
2447.400  2.034E-10
2447.600  2.044E-10
2447.800  2.041E-10
2448.000  2.022E-10
2448.200  2.006E-10
2448.400  1.992E-10
2448.600  2.019E-10
2448.800  2.025E-10
2449.000  2.022E-10
2449.200  2.024E-10
2449.400  2.028E-10
2449.600  2.034E-10
2449.800  2.026E-10
2450.000  2.037E-10
2450.200  2.036E-10
2450.400  2.014E-10
2450.600  1.978E-10
2450.800  1.999E-10
2451.000  2.003E-10
2451.200  2.011E-10
2451.400  2.026E-10
2451.600  2.015E-10
2451.800  2.021E-10
2452.000  2.025E-10
2452.200  2.020E-10
2452.400  2.026E-10
2452.600  2.021E-10
2452.800  2.024E-10
2453.000  2.027E-10
2453.200  2.038E-10
2453.400  2.036E-10
2453.600  2.034E-10
2453.800  2.017E-10
2454.000  2.013E-10
2454.200  2.014E-10
2454.400  2.026E-10
2454.600  2.021E-10
2454.800  2.009E-10
2455.000  2.003E-10
2455.200  2.025E-10
2455.400  2.025E-10
2455.600  2.016E-10
2455.800  2.019E-10
2456.000  1.994E-10
2456.200  2.015E-10
2456.400  2.015E-10
2456.600  2.007E-10
2456.800  1.996E-10
2457.000  2.000E-10
2457.200  2.024E-10
2457.400  2.027E-10
2457.600  1.961E-10
2457.800  1.982E-10
2458.000  2.032E-10
2458.200  2.033E-10
2458.400  2.021E-10
2458.600  2.011E-10
2458.800  2.025E-10
2459.000  2.025E-10
2459.200  2.021E-10
2459.400  2.003E-10
2459.600  2.004E-10
2459.800  1.899E-10
2460.000  1.988E-10
2460.200  1.998E-10
2460.400  2.001E-10
2460.600  2.007E-10
2460.800  2.012E-10
2461.000  2.012E-10
2461.200  2.000E-10
2461.400  1.994E-10
2461.600  1.984E-10
2461.800  2.005E-10
2462.000  1.995E-10
2462.200  1.997E-10
2462.400  2.005E-10
2462.600  1.992E-10
2462.800  1.991E-10
2463.000  2.006E-10
2463.200  2.008E-10
2463.400  2.006E-10
2463.600  1.993E-10
2463.800  1.999E-10
2464.000  1.986E-10
2464.200  2.001E-10
2464.400  1.978E-10
2464.600  1.992E-10
2464.800  1.999E-10
2465.000  1.967E-10
2465.200  2.008E-10
2465.400  2.002E-10
2465.600  2.004E-10
2465.800  1.970E-10
2466.000  2.018E-10
2466.200  1.988E-10
2466.400  2.004E-10
2466.600  1.994E-10
2466.800  2.011E-10
2467.000  1.989E-10
2467.200  1.983E-10
2467.400  1.958E-10
2467.600  1.936E-10
2467.800  1.997E-10
2468.000  2.007E-10
2468.200  2.018E-10
2468.400  2.018E-10
2468.600  1.990E-10
2468.800  1.993E-10
2469.000  1.998E-10
2469.200  2.006E-10
2469.400  2.001E-10
2469.600  2.011E-10
2469.800  1.986E-10
2470.000  1.993E-10
2470.200  1.978E-10
2470.400  1.965E-10
2470.600  1.990E-10
2470.800  1.984E-10
2471.000  1.985E-10
2471.200  1.981E-10
2471.400  1.967E-10
2471.600  1.966E-10
2471.800  1.920E-10
2472.000  1.979E-10
2472.200  1.983E-10
2472.400  1.980E-10
2472.600  1.953E-10
2472.800  1.978E-10
2473.000  1.969E-10
2473.200  1.973E-10
2473.400  1.960E-10
2473.600  1.962E-10
2473.800  1.964E-10
2474.000  1.967E-10
2474.200  1.974E-10
2474.400  1.965E-10
2474.600  1.985E-10
2474.800  1.987E-10
2475.000  1.984E-10
2475.200  1.988E-10
2475.400  1.992E-10
2475.600  1.984E-10
2475.800  1.953E-10
2476.000  1.956E-10
2476.200  1.973E-10
2476.400  1.984E-10
2476.600  1.979E-10
2476.800  1.984E-10
2477.000  1.971E-10
2477.200  1.971E-10
2477.400  1.971E-10
2477.600  1.974E-10
2477.800  2.003E-10
2478.000  1.990E-10
2478.200  1.998E-10
2478.400  1.975E-10
2478.600  1.978E-10
2478.800  1.970E-10
2479.000  1.967E-10
2479.200  1.957E-10
2479.400  1.968E-10
2479.600  1.966E-10
2479.800  1.966E-10
2480.000  1.963E-10
2480.200  1.949E-10
2480.400  1.950E-10
2480.600  1.954E-10
2480.800  1.849E-10
2481.000  1.941E-10
2481.200  1.955E-10
2481.400  1.964E-10
2481.600  1.958E-10
2481.800  1.947E-10
2482.000  1.953E-10
2482.200  1.967E-10
2482.400  1.967E-10
2482.600  1.949E-10
2482.800  1.965E-10
2483.000  1.954E-10
2483.200  1.936E-10
2483.400  1.950E-10
2483.600  1.949E-10
2483.800  1.946E-10
2484.000  1.925E-10
2484.200  1.915E-10
2484.400  1.978E-10
2484.600  1.975E-10
2484.800  1.936E-10
2485.000  1.950E-10
2485.200  1.953E-10
2485.400  1.943E-10
2485.600  1.965E-10
2485.800  1.963E-10
2486.000  1.961E-10
2486.200  1.964E-10
2486.400  1.962E-10
2486.600  1.962E-10
2486.800  1.955E-10
2487.000  1.953E-10
2487.200  1.950E-10
2487.400  1.936E-10
2487.600  1.947E-10
2487.800  1.955E-10
2488.000  1.950E-10
2488.200  1.949E-10
2488.400  1.957E-10
2488.600  1.941E-10
2488.800  1.956E-10
2489.000  1.942E-10
2489.200  1.942E-10
2489.400  1.955E-10
2489.600  1.956E-10
2489.800  1.919E-10
2490.000  1.946E-10
2490.200  1.959E-10
2490.400  1.960E-10
2490.600  1.861E-10
2490.800  1.874E-10
2491.000  1.945E-10
2491.200  1.947E-10
2491.400  1.925E-10
2491.600  1.907E-10
2491.800  1.816E-10
2492.000  1.953E-10
2492.200  1.940E-10
2492.400  1.917E-10
2492.600  1.947E-10
2492.800  1.946E-10
2493.000  1.950E-10
2493.200  1.937E-10
2493.400  1.934E-10
2493.600  1.929E-10
2493.800  1.949E-10
2494.000  1.952E-10
2494.200  1.806E-10
2494.400  1.951E-10
2494.600  1.962E-10
2494.800  1.938E-10
2495.000  1.933E-10
2495.200  1.950E-10
2495.400  1.953E-10
2495.600  1.935E-10
2495.800  1.927E-10
2496.000  1.951E-10
2496.200  1.942E-10
2496.400  1.948E-10
2496.600  1.934E-10
2496.800  1.920E-10
2497.000  1.913E-10
2497.200  1.862E-10
2497.400  1.918E-10
2497.600  1.913E-10
2497.800  1.898E-10
2498.000  1.875E-10
2498.200  1.903E-10
2498.400  1.928E-10
2498.600  1.931E-10
2498.800  1.899E-10
2499.000  1.921E-10
2499.200  1.930E-10
2499.400  1.920E-10
2499.600  1.915E-10
2499.800  1.915E-10
2500.000  1.862E-10
2500.200  1.929E-10
2500.400  1.931E-10
2500.600  1.929E-10
2500.800  1.905E-10
2501.000  1.917E-10
2501.200  1.904E-10
2501.400  1.903E-10
2501.600  1.897E-10
2501.800  1.887E-10
2502.000  1.897E-10
2502.200  1.907E-10
2502.400  1.917E-10
2502.600  1.931E-10
2502.800  1.932E-10
2503.000  1.920E-10
2503.200  1.928E-10
2503.400  1.895E-10
2503.600  1.909E-10
2503.800  1.896E-10
2504.000  1.921E-10
2504.200  1.915E-10
2504.400  1.890E-10
2504.600  1.900E-10
2504.800  1.898E-10
2505.000  1.905E-10
2505.200  1.910E-10
2505.400  1.901E-10
2505.600  1.913E-10
2505.800  1.911E-10
2506.000  1.898E-10
2506.200  1.906E-10
2506.400  1.891E-10
2506.600  1.921E-10
2506.800  1.923E-10
2507.000  1.900E-10
2507.200  1.917E-10
2507.400  1.884E-10
2507.600  1.903E-10
2507.800  1.913E-10
2508.000  1.914E-10
2508.200  1.913E-10
2508.400  1.913E-10
2508.600  1.893E-10
2508.800  1.908E-10
2509.000  1.894E-10
2509.200  1.896E-10
2509.400  1.892E-10
2509.600  1.901E-10
2509.800  1.896E-10
2510.000  1.890E-10
2510.200  1.868E-10
2510.400  1.881E-10
2510.600  1.910E-10
2510.800  1.897E-10
2511.000  1.898E-10
2511.200  1.893E-10
2511.400  1.892E-10
2511.600  1.893E-10
2511.800  1.883E-10
2512.000  1.875E-10
2512.200  1.858E-10
2512.400  1.792E-10
2512.600  1.787E-10
2512.800  1.755E-10
2513.000  1.681E-10
2513.200  1.860E-10
2513.400  1.875E-10
2513.600  1.872E-10
2513.800  1.874E-10
2514.000  1.878E-10
2514.200  1.868E-10
2514.400  1.879E-10
2514.600  1.902E-10
2514.800  1.896E-10
2515.000  1.899E-10
2515.200  1.899E-10
2515.400  1.865E-10
2515.600  1.859E-10
2515.800  1.900E-10
2516.000  1.883E-10
2516.200  1.886E-10
2516.400  1.892E-10
2516.600  1.888E-10
2516.800  1.864E-10
2517.000  1.765E-10
2517.200  1.872E-10
2517.400  1.889E-10
2517.600  1.852E-10
2517.800  1.857E-10
2518.000  1.879E-10
2518.200  1.865E-10
2518.400  1.860E-10
2518.600  1.843E-10
2518.800  1.882E-10
2519.000  1.858E-10
2519.200  1.853E-10
2519.400  1.875E-10
2519.600  1.887E-10
2519.800  1.889E-10
2520.000  1.879E-10
2520.200  1.877E-10
2520.400  1.883E-10
2520.600  1.861E-10
2520.800  1.869E-10
2521.000  1.862E-10
2521.200  1.843E-10
2521.400  1.875E-10
2521.600  1.860E-10
2521.800  1.859E-10
2522.000  1.861E-10
2522.200  1.856E-10
2522.400  1.870E-10
2522.600  1.863E-10
2522.800  1.852E-10
2523.000  1.873E-10
2523.200  1.856E-10
2523.400  1.866E-10
2523.600  1.874E-10
2523.800  1.868E-10
2524.000  1.856E-10
2524.200  1.857E-10
2524.400  1.879E-10
2524.600  1.880E-10
2524.800  1.869E-10
2525.000  1.885E-10
2525.200  1.881E-10
2525.400  1.853E-10
2525.600  1.863E-10
2525.800  1.876E-10
2526.000  1.870E-10
2526.200  1.846E-10
2526.400  1.790E-10
2526.600  1.863E-10
2526.800  1.863E-10
2527.000  1.860E-10
2527.200  1.844E-10
2527.400  1.857E-10
2527.600  1.857E-10
2527.800  1.847E-10
2528.000  1.830E-10
2528.200  1.855E-10
2528.400  1.855E-10
2528.600  1.844E-10
2528.800  1.785E-10
2529.000  1.846E-10
2529.200  1.850E-10
2529.400  1.851E-10
2529.600  1.854E-10
2529.800  1.845E-10
2530.000  1.819E-10
2530.200  1.828E-10
2530.400  1.841E-10
2530.600  1.841E-10
2530.800  1.848E-10
2531.000  1.839E-10
2531.200  1.789E-10
2531.400  1.832E-10
2531.600  1.847E-10
2531.800  1.852E-10
2532.000  1.822E-10
2532.200  1.850E-10
2532.400  1.845E-10
2532.600  1.843E-10
2532.800  1.855E-10
2533.000  1.852E-10
2533.200  1.849E-10
2533.400  1.839E-10
2533.600  1.850E-10
2533.800  1.852E-10
2534.000  1.851E-10
2534.200  1.847E-10
2534.400  1.823E-10
2534.600  1.806E-10
2534.800  1.830E-10
2535.000  1.834E-10
2535.200  1.838E-10
2535.400  1.785E-10
2535.600  1.837E-10
2535.800  1.846E-10
2536.000  1.847E-10
2536.200  1.848E-10
2536.400  1.819E-10
2536.600  1.833E-10
2536.800  1.848E-10
2537.000  1.850E-10
2537.200  1.846E-10
2537.400  1.842E-10
2537.600  1.838E-10
2537.800  1.745E-10
2538.000  1.828E-10
2538.200  1.831E-10
2538.400  1.830E-10
2538.600  1.770E-10
2538.800  1.731E-10
2539.000  1.810E-10
2539.200  1.802E-10
2539.400  1.838E-10
2539.600  1.760E-10
2539.800  1.752E-10
2540.000  1.772E-10
2540.200  1.835E-10
2540.400  1.832E-10
2540.600  1.832E-10
2540.800  1.829E-10
2541.000  1.814E-10
2541.200  1.785E-10
2541.400  1.834E-10
2541.600  1.838E-10
2541.800  1.797E-10
2542.000  1.843E-10
2542.200  1.825E-10
2542.400  1.824E-10
2542.600  1.793E-10
2542.800  1.387E-10
2543.000  1.771E-10
2543.200  1.818E-10
2543.400  1.818E-10
2543.600  1.811E-10
2543.800  1.809E-10
2544.000  1.822E-10
2544.200  1.831E-10
2544.400  1.793E-10
2544.600  1.819E-10
2544.800  1.831E-10
2545.000  1.835E-10
2545.200  1.821E-10
2545.400  1.777E-10
2545.600  1.834E-10
2545.800  1.827E-10
2546.000  1.807E-10
2546.200  1.789E-10
2546.400  1.813E-10
2546.600  1.759E-10
2546.800  1.801E-10
2547.000  1.805E-10
2547.200  1.807E-10
2547.400  1.806E-10
2547.600  1.814E-10
2547.800  1.809E-10
2548.000  1.828E-10
2548.200  1.826E-10
2548.400  1.814E-10
2548.600  1.816E-10
2548.800  1.820E-10
2549.000  1.819E-10
2549.200  1.815E-10
2549.400  1.817E-10
2549.600  1.793E-10
2549.800  1.787E-10
2550.000  1.784E-10
2550.200  1.823E-10
2550.400  1.812E-10
2550.600  1.782E-10
2550.800  1.800E-10
2551.000  1.797E-10
2551.200  1.810E-10
2551.400  1.801E-10
2551.600  1.722E-10
2551.800  1.738E-10
2552.000  1.800E-10
2552.200  1.687E-10
2552.400  1.806E-10
2552.600  1.817E-10
2552.800  1.818E-10
2553.000  1.815E-10
2553.200  1.817E-10
2553.400  1.820E-10
2553.600  1.824E-10
2553.800  1.822E-10
2554.000  1.805E-10
2554.200  1.833E-10
2554.400  1.814E-10
2554.600  1.773E-10
2554.800  1.805E-10
2555.000  1.819E-10
2555.200  1.814E-10
2555.400  1.807E-10
2555.600  1.808E-10
2555.800  1.829E-10
2556.000  1.824E-10
2556.200  1.798E-10
2556.400  1.788E-10
2556.600  1.819E-10
2556.800  1.821E-10
2557.000  1.801E-10
2557.200  1.775E-10
2557.400  1.818E-10
2557.600  1.807E-10
2557.800  1.811E-10
2558.000  1.806E-10
2558.200  1.819E-10
2558.400  1.810E-10
2558.600  1.785E-10
2558.800  1.787E-10
2559.000  1.794E-10
2559.200  1.786E-10
2559.400  1.791E-10
2559.600  1.800E-10
2559.800  1.793E-10
2560.000  1.784E-10
2560.200  1.601E-10
2560.400  1.761E-10
2560.600  1.794E-10
2560.800  1.781E-10
2561.000  1.786E-10
2561.200  1.789E-10
2561.400  1.774E-10
2561.600  1.802E-10
2561.800  1.797E-10
2562.000  1.806E-10
2562.200  1.805E-10
2562.400  1.810E-10
2562.600  1.806E-10
2562.800  1.815E-10
2563.000  1.822E-10
2563.200  1.804E-10
2563.400  1.800E-10
2563.600  1.793E-10
2563.800  1.800E-10
2564.000  1.795E-10
2564.200  1.801E-10
2564.400  1.762E-10
2564.600  1.784E-10
2564.800  1.784E-10
2565.000  1.784E-10
2565.200  1.782E-10
2565.400  1.796E-10
2565.600  1.755E-10
2565.800  1.759E-10
2566.000  1.785E-10
2566.200  1.783E-10
2566.400  1.733E-10
2566.600  1.771E-10
2566.800  1.794E-10
2567.000  1.778E-10
2567.200  1.766E-10
2567.400  1.764E-10
2567.600  1.778E-10
2567.800  1.789E-10
2568.000  1.762E-10
2568.200  1.777E-10
2568.400  1.771E-10
2568.600  1.747E-10
2568.800  1.785E-10
2569.000  1.774E-10
2569.200  1.771E-10
2569.400  1.752E-10
2569.600  1.764E-10
2569.800  1.739E-10
2570.000  1.774E-10
2570.200  1.783E-10
2570.400  1.780E-10
2570.600  1.784E-10
2570.800  1.768E-10
2571.000  1.771E-10
2571.200  1.782E-10
2571.400  1.785E-10
2571.600  1.799E-10
2571.800  1.778E-10
2572.000  1.775E-10
2572.200  1.773E-10
2572.400  1.778E-10
2572.600  1.771E-10
2572.800  1.777E-10
2573.000  1.772E-10
2573.200  1.778E-10
2573.400  1.770E-10
2573.600  1.772E-10
2573.800  1.760E-10
2574.000  1.767E-10
2574.200  1.753E-10
2574.400  1.756E-10
2574.600  1.764E-10
2574.800  1.756E-10
2575.000  1.768E-10
2575.200  1.766E-10
2575.400  1.727E-10
2575.600  1.753E-10
2575.800  1.569E-10
2576.000  1.751E-10
2576.200  1.752E-10
2576.400  1.742E-10
2576.600  1.758E-10
2576.800  1.749E-10
2577.000  1.653E-10
2577.200  1.732E-10
2577.400  1.737E-10
2577.600  1.728E-10
2577.800  1.726E-10
2578.000  1.739E-10
2578.200  1.743E-10
2578.400  1.741E-10
2578.600  1.746E-10
2578.800  1.662E-10
2579.000  1.748E-10
2579.200  1.757E-10
2579.400  1.757E-10
2579.600  1.752E-10
2579.800  1.757E-10
2580.000  1.764E-10
2580.200  1.771E-10
2580.400  1.770E-10
2580.600  1.739E-10
2580.800  1.753E-10
2581.000  1.752E-10
2581.200  1.756E-10
2581.400  1.735E-10
2581.600  1.737E-10
2581.800  1.729E-10
2582.000  1.731E-10
2582.200  1.743E-10
2582.400  1.751E-10
2582.600  1.753E-10
2582.800  1.756E-10
2583.000  1.757E-10
2583.200  1.757E-10
2583.400  1.625E-10
2583.600  1.703E-10
2583.800  1.733E-10
2584.000  1.719E-10
2584.200  1.743E-10
2584.400  1.739E-10
2584.600  1.657E-10
2584.800  1.726E-10
2585.000  1.728E-10
2585.200  1.731E-10
2585.400  1.735E-10
2585.600  1.711E-10
2585.800  1.728E-10
2586.000  1.704E-10
2586.200  1.705E-10
2586.400  1.680E-10
2586.600  1.639E-10
2586.800  1.208E-10
2587.000  1.684E-10
2587.200  1.714E-10
2587.400  1.715E-10
2587.600  1.712E-10
2587.800  1.709E-10
2588.000  1.713E-10
2588.200  1.715E-10
2588.400  1.712E-10
2588.600  1.726E-10
2588.800  1.726E-10
2589.000  1.668E-10
2589.200  1.718E-10
2589.400  1.740E-10
2589.600  1.753E-10
2589.800  1.714E-10
2590.000  1.716E-10
2590.200  1.730E-10
2590.400  1.726E-10
2590.600  1.735E-10
2590.800  1.745E-10
2591.000  1.725E-10
2591.200  1.733E-10
2591.400  1.740E-10
2591.600  1.737E-10
2591.800  1.742E-10
2592.000  1.733E-10
2592.200  1.733E-10
2592.400  1.733E-10
2592.600  1.716E-10
2592.800  1.710E-10
2593.000  1.733E-10
2593.200  1.758E-10
2593.400  1.754E-10
2593.600  1.707E-10
2593.800  1.686E-10
2594.000  1.750E-10
2594.200  1.721E-10
2594.400  1.754E-10
2594.600  1.665E-10
2594.800  1.667E-10
2595.000  1.713E-10
2595.200  1.718E-10
2595.400  1.719E-10
2595.600  1.714E-10
2595.800  1.714E-10
2596.000  1.707E-10
2596.200  1.668E-10
2596.400  1.707E-10
2596.600  1.697E-10
2596.800  1.698E-10
2597.000  1.714E-10
2597.200  1.714E-10
2597.400  1.715E-10
2597.600  1.718E-10
2597.800  1.720E-10
2598.000  1.727E-10
2598.200  1.730E-10
2598.400  1.723E-10
2598.600  1.728E-10
2598.800  1.727E-10
2599.000  1.724E-10
2599.200  1.716E-10
2599.400  1.639E-10
2599.600  1.711E-10
2599.800  1.717E-10
2600.000  1.718E-10
2600.200  1.606E-10
2600.400  1.671E-11
2600.600  1.709E-10
2600.800  1.713E-10
2601.000  1.714E-10
2601.200  1.712E-10
2601.400  1.708E-10
2601.600  1.723E-10
2601.800  1.714E-10
2602.000  1.726E-10
2602.200  1.721E-10
2602.400  1.705E-10
2602.600  1.716E-10
2602.800  1.723E-10
2603.000  1.724E-10
2603.200  1.714E-10
2603.400  1.687E-10
2603.600  1.692E-10
2603.800  1.689E-10
2604.000  1.702E-10
2604.200  1.693E-10
2604.400  1.699E-10
2604.600  1.698E-10
2604.800  1.702E-10
2605.000  1.709E-10
2605.200  1.698E-10
2605.400  1.706E-10
2605.600  1.699E-10
2605.800  1.686E-10
2606.000  1.663E-10
2606.200  1.692E-10
2606.400  1.625E-10
2606.600  1.618E-10
2606.800  1.688E-10
2607.000  1.707E-10
2607.200  1.700E-10
2607.400  1.694E-10
2607.600  1.668E-10
2607.800  1.700E-10
2608.000  1.609E-10
2608.200  1.705E-10
2608.400  1.712E-10
2608.600  1.711E-10
2608.800  1.713E-10
2609.000  1.607E-10
2609.200  1.707E-10
2609.400  1.716E-10
2609.600  1.707E-10
2609.800  1.675E-10
2610.000  1.679E-10
2610.200  1.688E-10
2610.400  1.681E-10
2610.600  1.680E-10
2610.800  1.681E-10
2611.000  1.689E-10
2611.200  1.694E-10
2611.400  1.689E-10
2611.600  1.703E-10
2611.800  1.698E-10
2612.000  1.685E-10
2612.200  1.688E-10
2612.400  1.688E-10
2612.600  1.687E-10
2612.800  1.686E-10
2613.000  1.684E-10
2613.200  1.680E-10
2613.400  1.676E-10
2613.600  1.678E-10
2613.800  1.692E-10
2614.000  1.677E-10
2614.200  1.682E-10
2614.400  1.685E-10
2614.600  1.674E-10
2614.800  1.634E-10
2615.000  1.664E-10
2615.200  1.673E-10
2615.400  1.678E-10
2615.600  1.682E-10
2615.800  1.684E-10
2616.000  1.682E-10
2616.200  1.648E-10
2616.400  1.683E-10
2616.600  1.687E-10
2616.800  1.688E-10
2617.000  1.695E-10
2617.200  1.687E-10
2617.400  1.683E-10
2617.600  1.676E-10
2617.800  1.676E-10
2618.000  1.661E-10
2618.200  1.569E-10
2618.400  1.673E-10
2618.600  1.659E-10
2618.800  1.683E-10
2619.000  1.663E-10
2619.200  1.675E-10
2619.400  1.689E-10
2619.600  1.695E-10
2619.800  1.688E-10
2620.000  1.689E-10
2620.200  1.665E-10
2620.400  1.679E-10
2620.600  1.685E-10
2620.800  1.684E-10
2621.000  1.686E-10
2621.200  1.666E-10
2621.400  1.672E-10
2621.600  1.668E-10
2621.800  1.664E-10
2622.000  1.685E-10
2622.200  1.672E-10
2622.400  1.669E-10
2622.600  1.662E-10
2622.800  1.655E-10
2623.000  1.661E-10
2623.200  1.659E-10
2623.400  1.655E-10
2623.600  1.657E-10
2623.800  1.647E-10
2624.000  1.647E-10
2624.200  1.637E-10
2624.400  1.637E-10
2624.600  1.651E-10
2624.800  1.625E-10
2625.000  1.638E-10
2625.200  1.667E-10
2625.400  1.667E-10
2625.600  1.660E-10
2625.800  1.659E-10
2626.000  1.668E-10
2626.200  1.652E-10
2626.400  1.601E-10
2626.600  1.545E-10
2626.800  1.672E-10
2627.000  1.664E-10
2627.200  1.664E-10
2627.400  1.663E-10
2627.600  1.673E-10
2627.800  1.673E-10
2628.000  1.646E-10
2628.200  1.670E-10
2628.400  1.670E-10
2628.600  1.668E-10
2628.800  1.663E-10
2629.000  1.673E-10
2629.200  1.667E-10
2629.400  1.643E-10
2629.600  1.635E-10
2629.800  1.666E-10
2630.000  1.664E-10
2630.200  1.666E-10
2630.400  1.658E-10
2630.600  1.650E-10
2630.800  1.663E-10
2631.000  1.667E-10
2631.200  1.663E-10
2631.400  1.661E-10
2631.600  1.635E-10
2631.800  1.659E-10
2632.000  1.651E-10
2632.200  1.604E-10
2632.400  1.620E-10
2632.600  1.628E-10
2632.800  1.643E-10
2633.000  1.639E-10
2633.200  1.644E-10
2633.400  1.641E-10
2633.600  1.648E-10
2633.800  1.639E-10
2634.000  1.648E-10
2634.200  1.651E-10
2634.400  1.641E-10
2634.600  1.619E-10
2634.800  1.594E-10
2635.000  1.645E-10
2635.200  1.641E-10
2635.400  1.635E-10
2635.600  1.637E-10
2635.800  1.634E-10
2636.000  1.638E-10
2636.200  1.629E-10
2636.400  1.614E-10
2636.600  1.635E-10
2636.800  1.636E-10
2637.000  1.638E-10
2637.200  1.637E-10
2637.400  1.634E-10
2637.600  1.632E-10
2637.800  1.643E-10
2638.000  1.610E-10
2638.200  1.642E-10
2638.400  1.633E-10
2638.600  1.642E-10
2638.800  1.634E-10
2639.000  1.639E-10
2639.200  1.619E-10
2639.400  1.624E-10
2639.600  1.636E-10
2639.800  1.633E-10
2640.000  1.631E-10
2640.200  1.641E-10
2640.400  1.641E-10
2640.600  1.623E-10
2640.800  1.634E-10
2641.000  1.632E-10
2641.200  1.638E-10
2641.400  1.639E-10
2641.600  1.591E-10
2641.800  1.522E-10
2642.000  1.623E-10
2642.200  1.625E-10
2642.400  1.605E-10
2642.600  1.629E-10
2642.800  1.632E-10
2643.000  1.634E-10
2643.200  1.619E-10
2643.400  1.619E-10
2643.600  1.643E-10
2643.800  1.632E-10
2644.000  1.631E-10
2644.200  1.624E-10
2644.400  1.625E-10
2644.600  1.621E-10
2644.800  1.623E-10
2645.000  1.622E-10
2645.200  1.628E-10
2645.400  1.618E-10
2645.600  1.620E-10
2645.800  1.636E-10
2646.000  1.618E-10
2646.200  1.614E-10
2646.400  1.595E-10
2646.600  1.641E-10
2646.800  1.636E-10
2647.000  1.612E-10
2647.200  1.653E-10
2647.400  1.659E-10
2647.600  1.648E-10
2647.800  1.586E-10
2648.000  1.649E-10
2648.200  1.642E-10
2648.400  1.622E-10
2648.600  1.605E-10
2648.800  1.614E-10
2649.000  1.620E-10
2649.200  1.620E-10
2649.400  1.617E-10
2649.600  1.625E-10
2649.800  1.616E-10
2650.000  1.625E-10
2650.200  1.633E-10
2650.400  1.628E-10
2650.600  1.611E-10
2650.800  1.614E-10
2651.000  1.621E-10
2651.200  1.644E-10
2651.400  1.630E-10
2651.600  1.616E-10
2651.800  1.639E-10
2652.000  1.646E-10
2652.200  1.628E-10
2652.400  1.610E-10
2652.600  1.624E-10
2652.800  1.597E-10
2653.000  1.596E-10
2653.200  1.608E-10
2653.400  1.605E-10
2653.600  1.584E-10
2653.800  1.434E-10
2654.000  1.549E-10
2654.200  1.606E-10
2654.400  1.602E-10
2654.600  1.625E-10
2654.800  1.609E-10
2655.000  1.594E-10
2655.200  1.633E-10
2655.400  1.632E-10
2655.600  1.625E-10
2655.800  1.618E-10
2656.000  1.580E-10
2656.200  1.569E-10
2656.400  1.581E-10
2656.600  1.596E-10
2656.800  1.612E-10
2657.000  1.634E-10
2657.200  1.597E-10
2657.400  1.573E-10
2657.600  1.615E-10
2657.800  1.612E-10
2658.000  1.611E-10
2658.200  1.602E-10
2658.400  1.610E-10
2658.600  1.609E-10
2658.800  1.609E-10
2659.000  1.612E-10
2659.200  1.613E-10
2659.400  1.594E-10
2659.600  1.594E-10
2659.800  1.612E-10
2660.000  1.609E-10
2660.200  1.560E-10
2660.400  1.602E-10
2660.600  1.599E-10
2660.800  1.604E-10
2661.000  1.619E-10
2661.200  1.623E-10
2661.400  1.622E-10
2661.600  1.625E-10
2661.800  1.562E-10
2662.000  1.571E-10
2662.200  1.594E-10
2662.400  1.612E-10
2662.600  1.606E-10
2662.800  1.605E-10
2663.000  1.611E-10
2663.200  1.597E-10
2663.400  1.553E-10
2663.600  1.598E-10
2663.800  1.600E-10
2664.000  1.581E-10
2664.200  1.589E-10
2664.400  1.581E-10
2664.600  1.589E-10
2664.800  1.590E-10
2665.000  1.587E-10
2665.200  1.584E-10
2665.400  1.601E-10
2665.600  1.587E-10
2665.800  1.574E-10
2666.000  1.610E-10
2666.200  1.606E-10
2666.400  1.541E-10
2666.600  1.515E-10
2666.800  1.589E-10
2667.000  1.589E-10
2667.200  1.590E-10
2667.400  1.586E-10
2667.600  1.552E-10
2667.800  1.558E-10
2668.000  1.570E-10
2668.200  1.555E-10
2668.400  1.589E-10
2668.600  1.599E-10
2668.800  1.586E-10
2669.000  1.588E-10
2669.200  1.572E-10
2669.400  1.562E-10
2669.600  1.580E-10
2669.800  1.587E-10
2670.000  1.587E-10
2670.200  1.588E-10
2670.400  1.583E-10
2670.600  1.546E-10
2670.800  1.595E-10
2671.000  1.581E-10
2671.200  1.577E-10
2671.400  1.575E-10
2671.600  1.578E-10
2671.800  1.556E-10
2672.000  1.580E-10
2672.200  1.580E-10
2672.400  1.584E-10
2672.600  1.609E-10
2672.800  1.594E-10
2673.000  1.567E-10
2673.200  1.572E-10
2673.400  1.538E-10
2673.600  1.590E-10
2673.800  1.565E-10
2674.000  1.576E-10
2674.200  1.594E-10
2674.400  1.579E-10
2674.600  1.585E-10
2674.800  1.568E-10
2675.000  1.575E-10
2675.200  1.587E-10
2675.400  1.591E-10
2675.600  1.589E-10
2675.800  1.554E-10
2676.000  1.557E-10
2676.200  1.550E-10
2676.400  1.568E-10
2676.600  1.551E-10
2676.800  1.520E-10
2677.000  1.525E-10
2677.200  1.544E-10
2677.400  1.551E-10
2677.600  1.528E-10
2677.800  1.541E-10
2678.000  1.532E-10
2678.200  1.510E-10
2678.400  1.497E-10
2678.600  1.527E-10
2678.800  1.552E-10
2679.000  1.561E-10
2679.200  1.560E-10
2679.400  1.560E-10
2679.600  1.552E-10
2679.800  1.544E-10
2680.000  1.540E-10
2680.200  1.555E-10
2680.400  1.586E-10
2680.600  1.578E-10
2680.800  1.574E-10
2681.000  1.591E-10
2681.200  1.587E-10
2681.400  1.567E-10
2681.600  1.546E-10
2681.800  1.563E-10
2682.000  1.578E-10
2682.200  1.553E-10
2682.400  1.505E-10
2682.600  1.571E-10
2682.800  1.575E-10
2683.000  1.576E-10
2683.200  1.580E-10
2683.400  1.527E-10
2683.600  1.547E-10
2683.800  1.577E-10
2684.000  1.582E-10
2684.200  1.570E-10
2684.400  1.574E-10
2684.600  1.567E-10
2684.800  1.577E-10
2685.000  1.585E-10
2685.200  1.594E-10
2685.400  1.565E-10
2685.600  1.564E-10
2685.800  1.525E-10
2686.000  1.565E-10
2686.200  1.551E-10
2686.400  1.578E-10
2686.600  1.560E-10
2686.800  1.572E-10
2687.000  1.573E-10
2687.200  1.547E-10
2687.400  1.508E-10
2687.600  1.533E-10
2687.800  1.552E-10
2688.000  1.552E-10
2688.200  1.545E-10
2688.400  1.569E-10
2688.600  1.548E-10
2688.800  1.546E-10
2689.000  1.552E-10
2689.200  1.549E-10
2689.400  1.556E-10
2689.600  1.559E-10
2689.800  1.538E-10
2690.000  1.560E-10
2690.200  1.548E-10
2690.400  1.549E-10
2690.600  1.566E-10
2690.800  1.540E-10
2691.000  1.554E-10
2691.200  1.553E-10
2691.400  1.553E-10
2691.600  1.553E-10
2691.800  1.562E-10
2692.000  1.566E-10
2692.200  1.541E-10
2692.400  1.546E-10
2692.600  1.551E-10
2692.800  1.510E-10
2693.000  1.533E-10
2693.200  1.539E-10
2693.400  1.542E-10
2693.600  1.532E-10
2693.800  1.541E-10
2694.000  1.545E-10
2694.200  1.544E-10
2694.400  1.561E-10
2694.600  1.544E-10
2694.800  1.548E-10
2695.000  1.549E-10
2695.200  1.533E-10
2695.400  1.535E-10
2695.600  1.534E-10
2695.800  1.528E-10
2696.000  1.499E-10
2696.200  1.350E-10
2696.400  1.448E-10
2696.600  1.494E-10
2696.800  1.484E-10
2697.000  1.438E-10
2697.200  1.409E-10
2697.400  1.432E-10
2697.600  1.439E-10
2697.800  1.362E-10
2698.000  1.417E-10
2698.200  1.429E-10
2698.400  1.414E-10
2698.600  1.539E-10
2698.800  1.539E-10
2699.000  1.540E-10
2699.200  1.528E-10
2699.400  1.482E-10
2699.600  1.526E-10
2699.800  1.529E-10
2700.000  1.525E-10
2700.200  1.517E-10
2700.400  1.549E-10
2700.600  1.538E-10
2700.800  1.538E-10
2701.000  1.414E-10
2701.200  1.525E-10
2701.400  1.516E-10
2701.600  1.529E-10
2701.800  1.530E-10
2702.000  1.537E-10
2702.200  1.492E-10
2702.400  1.522E-10
2702.600  1.518E-10
2702.800  1.443E-10
2703.000  1.455E-10
2703.200  1.541E-10
2703.400  1.541E-10
2703.600  1.521E-10
2703.800  1.481E-10
2704.000  1.504E-10
2704.200  1.545E-10
2704.400  1.527E-10
2704.600  1.532E-10
2704.800  1.527E-10
2705.000  1.457E-10
2705.200  1.440E-10
2705.400  1.461E-10
2705.600  1.530E-10
2705.800  1.517E-10
2706.000  1.504E-10
2706.200  1.478E-10
2706.400  1.511E-10
2706.600  1.509E-10
2706.800  1.516E-10
2707.000  1.511E-10
2707.200  1.491E-10
2707.400  1.469E-10
2707.600  1.504E-10
2707.800  1.528E-10
2708.000  1.533E-10
2708.200  1.523E-10
2708.400  1.534E-10
2708.600  1.539E-10
2708.800  1.393E-10
2709.000  1.503E-10
2709.200  1.508E-10
2709.400  1.509E-10
2709.600  1.491E-10
2709.800  1.495E-10
2710.000  1.469E-10
2710.200  1.460E-10
2710.400  1.509E-10
2710.600  1.537E-10
2710.800  1.517E-10
2711.000  1.491E-10
2711.200  1.533E-10
2711.400  1.533E-10
2711.600  1.534E-10
2711.800  1.512E-10
2712.000  1.499E-10
2712.200  1.504E-10
2712.400  1.502E-10
2712.600  1.501E-10
2712.800  1.469E-10
2713.000  1.519E-10
2713.200  1.498E-10
2713.400  1.527E-10
2713.600  1.531E-10
2713.800  1.558E-10
2714.000  1.507E-10
2714.200  1.515E-10
2714.400  1.523E-10
2714.600  1.521E-10
2714.800  1.519E-10
2715.000  1.511E-10
2715.200  1.511E-10
2715.400  1.497E-10
2715.600  1.505E-10
2715.800  1.506E-10
2716.000  1.494E-10
2716.200  1.497E-10
2716.400  1.466E-10
2716.600  1.505E-10
2716.800  1.464E-10
2717.000  1.521E-10
2717.200  1.521E-10
2717.400  1.507E-10
2717.600  1.503E-10
2717.800  1.505E-10
2718.000  1.517E-10
2718.200  1.507E-10
2718.400  1.502E-10
2718.600  1.513E-10
2718.800  1.503E-10
2719.000  1.464E-10
2719.200  1.496E-10
2719.400  1.484E-10
2719.600  1.479E-10
2719.800  1.481E-10
2720.000  1.431E-10
2720.200  1.473E-10
2720.400  1.493E-10
2720.600  1.492E-10
2720.800  1.498E-10
2721.000  1.498E-10
2721.200  1.487E-10
2721.400  1.433E-10
2721.600  1.478E-10
2721.800  1.456E-10
2722.000  1.488E-10
2722.200  1.486E-10
2722.400  1.482E-10
2722.600  1.479E-10
2722.800  1.490E-10
2723.000  1.500E-10
2723.200  1.507E-10
2723.400  1.494E-10
2723.600  1.483E-10
2723.800  1.435E-10
2724.000  1.419E-10
2724.200  1.366E-10
2724.400  1.308E-10
2724.600  1.409E-10
2724.800  1.424E-10
2725.000  1.440E-10
2725.200  1.472E-10
2725.400  1.486E-10
2725.600  1.495E-10
2725.800  1.468E-10
2726.000  1.499E-10
2726.200  1.498E-10
2726.400  1.460E-10
2726.600  1.492E-10
2726.800  1.494E-10
2727.000  1.485E-10
2727.200  1.468E-10
2727.400  1.511E-10
2727.600  1.494E-10
2727.800  1.466E-10
2728.000  1.486E-10
2728.200  1.483E-10
2728.400  1.473E-10
2728.600  1.446E-10
2728.800  1.462E-10
2729.000  1.465E-10
2729.200  1.499E-10
2729.400  1.498E-10
2729.600  1.478E-10
2729.800  1.476E-10
2730.000  1.486E-10
2730.200  1.491E-10
2730.400  1.491E-10
2730.600  1.502E-10
2730.800  1.480E-10
2731.000  1.482E-10
2731.200  1.454E-10
2731.400  1.474E-10
2731.600  1.513E-10
2731.800  1.472E-10
2732.000  1.503E-10
2732.200  1.481E-10
2732.400  1.520E-10
2732.600  1.508E-10
2732.800  1.504E-10
2733.000  1.519E-10
2733.200  1.508E-10
2733.400  1.492E-10
2733.600  1.495E-10
2733.800  1.489E-10
2734.000  1.479E-10
2734.200  1.472E-10
2734.400  1.420E-10
2734.600  1.465E-10
2734.800  1.487E-10
2735.000  1.476E-10
2735.200  1.476E-10
2735.400  1.482E-10
2735.600  1.482E-10
2735.800  1.466E-10
2736.000  1.475E-10
2736.200  1.476E-10
2736.400  1.482E-10
2736.600  1.484E-10
2736.800  1.484E-10
2737.000  1.475E-10
2737.200  1.491E-10
2737.400  1.486E-10
2737.600  1.466E-10
2737.800  1.471E-10
2738.000  1.458E-10
2738.200  1.437E-10
2738.400  1.469E-10
2738.600  1.470E-10
2738.800  1.468E-10
2739.000  1.473E-10
2739.200  1.462E-10
2739.400  1.477E-10
2739.600  1.479E-10
2739.800  1.477E-10
2740.000  1.461E-10
2740.200  1.464E-10
2740.400  1.452E-10
2740.600  1.380E-10
2740.800  1.456E-10
2741.000  1.481E-10
2741.200  1.483E-10
2741.400  1.486E-10
2741.600  1.490E-10
2741.800  1.485E-10
2742.000  1.489E-10
2742.200  1.490E-10
2742.400  1.490E-10
2742.600  1.496E-10
2742.800  1.490E-10
2743.000  1.477E-10
2743.200  1.463E-10
2743.400  1.479E-10
2743.600  1.472E-10
2743.800  1.452E-10
2744.000  1.466E-10
2744.200  1.437E-10
2744.400  1.466E-10
2744.600  1.462E-10
2744.800  1.466E-10
2745.000  1.465E-10
2745.200  1.459E-10
2745.400  1.451E-10
2745.600  1.455E-10
2745.800  1.460E-10
2746.000  1.451E-10
2746.200  1.449E-10
2746.400  1.435E-10
2746.600  1.446E-10
2746.800  1.459E-10
2747.000  1.437E-10
2747.200  1.450E-10
2747.400  1.453E-10
2747.600  1.420E-10
2747.800  1.452E-10
2748.000  1.433E-10
2748.200  1.312E-10
2748.400  1.323E-10
2748.600  1.449E-10
2748.800  1.454E-10
2749.000  1.457E-10
2749.200  1.458E-10
2749.400  1.449E-10
2749.600  1.453E-10
2749.800  1.452E-10
2750.000  1.447E-10
2750.200  1.423E-10
2750.400  1.322E-10
2750.600  1.440E-10
2750.800  1.461E-10
2751.000  1.455E-10
2751.200  1.455E-10
2751.400  1.444E-10
2751.600  1.469E-10
2751.800  1.451E-10
2752.000  1.470E-10
2752.200  1.465E-10
2752.400  1.466E-10
2752.600  1.440E-10
2752.800  1.458E-10
2753.000  1.451E-10
2753.200  1.451E-10
2753.400  1.434E-10
2753.600  1.434E-10
2753.800  1.443E-10
2754.000  1.435E-10
2754.200  1.440E-10
2754.400  1.410E-10
2754.600  1.441E-10
2754.800  1.436E-10
2755.000  1.425E-10
2755.200  1.436E-10
2755.400  1.437E-10
2755.600  1.428E-10
2755.800  1.422E-10
2756.000  1.426E-10
2756.200  1.432E-10
2756.400  1.394E-10
2756.600  1.419E-10
2756.800  1.333E-10
2757.000  1.417E-10
2757.200  1.432E-10
2757.400  1.426E-10
2757.600  1.426E-10
2757.800  1.412E-10
2758.000  1.392E-10
2758.200  1.402E-10
2758.400  1.412E-10
2758.600  1.423E-10
2758.800  1.423E-10
2759.000  1.437E-10
2759.200  1.432E-10
2759.400  1.440E-10
2759.600  1.438E-10
2759.800  1.394E-10
2760.000  1.434E-10
2760.200  1.437E-10
2760.400  1.427E-10
2760.600  1.401E-10
2760.800  1.438E-10
2761.000  1.431E-10
2761.200  1.450E-10
2761.400  1.451E-10
2761.600  1.431E-10
2761.800  1.451E-10
2762.000  1.454E-10
2762.200  1.438E-10
2762.400  1.448E-10
2762.600  1.439E-10
2762.800  1.438E-10
2763.000  1.431E-10
2763.200  1.427E-10
2763.400  1.421E-10
2763.600  1.416E-10
2763.800  1.412E-10
2764.000  1.378E-10
2764.200  1.406E-10
2764.400  1.404E-10
2764.600  1.374E-10
2764.800  1.258E-10
2765.000  1.165E-10
2765.200  1.312E-10
2765.400  1.355E-10
2765.600  1.377E-10
2765.800  1.375E-10
2766.000  1.386E-10
2766.200  1.401E-10
2766.400  1.405E-10
2766.600  1.404E-10
2766.800  1.411E-10
2767.000  1.409E-10
2767.200  1.403E-10
2767.400  1.411E-10
2767.600  1.418E-10
2767.800  1.423E-10
2768.000  1.409E-10
2768.200  1.427E-10
2768.400  1.420E-10
2768.600  1.367E-10
2768.800  1.409E-10
2769.000  1.392E-10
2769.200  1.430E-10
2769.400  1.422E-10
2769.600  1.433E-10
2769.800  1.436E-10
2770.000  1.418E-10
2770.200  1.414E-10
2770.400  1.410E-10
2770.600  1.422E-10
2770.800  1.417E-10
2771.000  1.419E-10
2771.200  1.409E-10
2771.400  1.420E-10
2771.600  1.417E-10
2771.800  1.425E-10
2772.000  1.414E-10
2772.200  1.422E-10
2772.400  1.417E-10
2772.600  1.429E-10
2772.800  1.413E-10
2773.000  1.420E-10
2773.200  1.418E-10
2773.400  1.422E-10
2773.600  1.418E-10
2773.800  1.424E-10
2774.000  1.413E-10
2774.200  1.426E-10
2774.400  1.379E-10
2774.600  1.416E-10
2774.800  1.421E-10
2775.000  1.420E-10
2775.200  1.402E-10
2775.400  1.408E-10
2775.600  1.398E-10
2775.800  1.393E-10
2776.000  1.393E-10
2776.200  1.376E-10
2776.400  1.394E-10
2776.600  1.404E-10
2776.800  1.397E-10
2777.000  1.422E-10
2777.200  1.420E-10
2777.400  1.418E-10
2777.600  1.416E-10
2777.800  1.420E-10
2778.000  1.415E-10
2778.200  1.416E-10
2778.400  1.411E-10
2778.600  1.410E-10
2778.800  1.410E-10
2779.000  1.434E-10
2779.200  1.419E-10
2779.400  1.416E-10
2779.600  1.423E-10
2779.800  1.399E-10
2780.000  1.387E-10
2780.200  1.398E-10
2780.400  1.369E-10
2780.600  1.374E-10
2780.800  1.413E-10
2781.000  1.406E-10
2781.200  1.412E-10
2781.400  1.407E-10
2781.600  1.417E-10
2781.800  1.391E-10
2782.000  1.407E-10
2782.200  1.410E-10
2782.400  1.395E-10
2782.600  1.417E-10
2782.800  1.397E-10
2783.000  1.390E-10
2783.200  1.398E-10
2783.400  1.399E-10
2783.600  1.393E-10
2783.800  1.394E-10
2784.000  1.381E-10
2784.200  1.379E-10
2784.400  1.383E-10
2784.600  1.395E-10
2784.800  1.383E-10
2785.000  1.387E-10
2785.200  1.393E-10
2785.400  1.387E-10
2785.600  1.392E-10
2785.800  1.389E-10
2786.000  1.379E-10
2786.200  1.396E-10
2786.400  1.378E-10
2786.600  1.375E-10
2786.800  1.374E-10
2787.000  1.383E-10
2787.200  1.392E-10
2787.400  1.379E-10
2787.600  1.379E-10
2787.800  1.393E-10
2788.000  1.390E-10
2788.200  1.384E-10
2788.400  1.381E-10
2788.600  1.394E-10
2788.800  1.390E-10
2789.000  1.391E-10
2789.200  1.390E-10
2789.400  1.388E-10
2789.600  1.400E-10
2789.800  1.404E-10
2790.000  1.390E-10
2790.200  1.385E-10
2790.400  1.389E-10
2790.600  1.358E-10
2790.800  1.354E-10
2791.000  1.380E-10
2791.200  1.389E-10
2791.400  1.389E-10
2791.600  1.395E-10
2791.800  1.286E-10
2792.000  1.347E-10
2792.200  1.374E-10
2792.400  1.387E-10
2792.600  1.380E-10
2792.800  1.381E-10
2793.000  1.372E-10
2793.200  1.359E-10
2793.400  1.381E-10
2793.600  1.378E-10
2793.800  1.379E-10
2794.000  1.371E-10
2794.200  1.375E-10
2794.400  1.373E-10
2794.600  1.373E-10
2794.800  1.386E-10
2795.000  1.375E-10
2795.200  1.362E-10
2795.400  1.291E-10
2795.600  1.307E-10
2795.800  1.325E-10
2796.000  1.297E-10
2796.200  1.282E-10
2796.400  6.388E-11
2796.600  5.334E-13
2796.800  1.253E-10
2797.000  1.353E-10
2797.200  1.370E-10
2797.400  1.371E-10
2797.600  1.354E-10
2797.800  1.374E-10
2798.000  1.368E-10
2798.200  1.380E-10
2798.400  1.378E-10
2798.600  1.348E-10
2798.800  1.370E-10
2799.000  1.219E-10
2799.200  1.374E-10
2799.400  1.387E-10
2799.600  1.385E-10
2799.800  1.382E-10
2800.000  1.367E-10
2800.200  1.377E-10
2800.400  1.372E-10
2800.600  1.381E-10
2800.800  1.390E-10
2801.000  1.391E-10
2801.200  1.391E-10
2801.400  1.386E-10
2801.600  1.382E-10
2801.800  1.372E-10
2802.000  1.369E-10
2802.200  1.329E-10
2802.400  1.361E-10
2802.600  1.359E-10
2802.800  1.329E-10
2803.000  1.346E-10
2803.200  1.329E-10
2803.400  1.324E-10
2803.600  2.547E-11
2803.800  9.966E-13
2804.000  1.349E-10
2804.200  1.357E-10
2804.400  1.359E-10
2804.600  1.342E-10
2804.800  1.345E-10
2805.000  1.341E-10
2805.200  1.347E-10
2805.400  1.357E-10
2805.600  1.350E-10
2805.800  1.355E-10
2806.000  1.356E-10
2806.200  1.367E-10
2806.400  1.367E-10
2806.600  1.363E-10
2806.800  1.364E-10
2807.000  1.370E-10
2807.200  1.373E-10
2807.400  1.377E-10
2807.600  1.376E-10
2807.800  1.363E-10
2808.000  1.372E-10
2808.200  1.360E-10
2808.400  1.379E-10
2808.600  1.406E-10
2808.800  1.375E-10
2809.000  1.376E-10
2809.200  1.366E-10
2809.400  1.364E-10
2809.600  1.375E-10
2809.800  1.367E-10
2810.000  1.367E-10
2810.200  1.362E-10
2810.400  1.374E-10
2810.600  1.347E-10
2810.800  1.368E-10
2811.000  1.370E-10
2811.200  1.365E-10
2811.400  1.358E-10
2811.600  1.362E-10
2811.800  1.369E-10
2812.000  1.362E-10
2812.200  1.354E-10
2812.400  1.352E-10
2812.600  1.357E-10
2812.800  1.349E-10
2813.000  1.351E-10
2813.200  1.353E-10
2813.400  1.360E-10
2813.600  1.361E-10
2813.800  1.339E-10
2814.000  1.358E-10
2814.200  1.330E-10
2814.400  1.315E-10
2814.600  1.335E-10
2814.800  1.333E-10
2815.000  1.328E-10
2815.200  1.341E-10
2815.400  1.340E-10
2815.600  1.342E-10
2815.800  1.342E-10
2816.000  1.342E-10
2816.200  1.340E-10
2816.400  1.345E-10
2816.600  1.343E-10
2816.800  1.340E-10
2817.000  1.359E-10
2817.200  1.359E-10
2817.400  1.344E-10
2817.600  1.342E-10
2817.800  1.342E-10
2818.000  1.346E-10
2818.200  1.341E-10
2818.400  1.350E-10
2818.600  1.344E-10
2818.800  1.339E-10
2819.000  1.350E-10
2819.200  1.355E-10
2819.400  1.355E-10
2819.600  1.348E-10
2819.800  1.303E-10
2820.000  1.347E-10
2820.200  1.355E-10
2820.400  1.353E-10
2820.600  1.357E-10
2820.800  1.357E-10
2821.000  1.361E-10
2821.200  1.360E-10
2821.400  1.358E-10
2821.600  1.352E-10
2821.800  1.366E-10
2822.000  1.367E-10
2822.200  1.356E-10
2822.400  1.358E-10
2822.600  1.351E-10
2822.800  1.344E-10
2823.000  1.342E-10
2823.200  1.325E-10
2823.400  1.339E-10
2823.600  1.341E-10
2823.800  1.340E-10
2824.000  1.337E-10
2824.200  1.332E-10
2824.400  1.330E-10
2824.600  1.314E-10
2824.800  1.313E-10
2825.000  1.324E-10
2825.200  1.323E-10
2825.400  1.324E-10
2825.600  1.327E-10
2825.800  1.330E-10
2826.000  1.340E-10
2826.200  1.341E-10
2826.400  1.329E-10
2826.600  1.334E-10
2826.800  1.317E-10
2827.000  1.289E-10
2827.200  1.303E-10
2827.400  1.328E-10
2827.600  1.340E-10
2827.800  1.335E-10
2828.000  1.330E-10
2828.200  1.331E-10
2828.400  1.339E-10
2828.600  1.342E-10
2828.800  1.336E-10
2829.000  1.326E-10
2829.200  1.327E-10
2829.400  1.319E-10
2829.600  1.304E-10
2829.800  1.281E-10
2830.000  1.223E-10
2830.200  9.459E-11
2830.400  1.174E-10
2830.600  1.258E-10
2830.800  1.294E-10
2831.000  1.300E-10
2831.200  1.302E-10
2831.400  1.299E-10
2831.600  1.308E-10
2831.800  1.316E-10
2832.000  1.330E-10
2832.200  1.323E-10
2832.400  1.321E-10
2832.600  1.309E-10
2832.800  1.320E-10
2833.000  1.316E-10
2833.200  1.308E-10
2833.400  1.311E-10
2833.600  1.307E-10
2833.800  1.315E-10
2834.000  1.319E-10
2834.200  1.318E-10
2834.400  1.318E-10
2834.600  1.297E-10
2834.800  1.305E-10
2835.000  1.302E-10
2835.200  1.306E-10
2835.400  1.307E-10
2835.600  1.311E-10
2835.800  1.298E-10
2836.000  1.317E-10
2836.200  1.331E-10
2836.400  1.325E-10
2836.600  1.304E-10
2836.800  1.298E-10
2837.000  1.323E-10
2837.200  1.287E-10
2837.400  1.320E-10
2837.600  1.317E-10
2837.800  9.518E-11
2838.000  1.307E-10
2838.200  1.321E-10
2838.400  1.326E-10
2838.600  1.290E-10
2838.800  1.273E-10
2839.000  1.329E-10
2839.200  1.327E-10
2839.400  1.311E-10
2839.600  1.316E-10
2839.800  1.315E-10
2840.000  1.302E-10
2840.200  1.311E-10
2840.400  1.328E-10
2840.600  1.313E-10
2840.800  1.302E-10
2841.000  1.305E-10
2841.200  1.324E-10
2841.400  1.303E-10
2841.600  1.316E-10
2841.800  1.284E-10
2842.000  1.300E-10
2842.200  1.291E-10
2842.400  1.312E-10
2842.600  1.319E-10
2842.800  1.316E-10
2843.000  1.322E-10
2843.200  1.321E-10
2843.400  1.313E-10
2843.600  1.309E-10
2843.800  1.292E-10
2844.000  1.278E-10
2844.200  1.283E-10
2844.400  1.295E-10
2844.600  1.294E-10
2844.800  1.269E-10
2845.000  1.290E-10
2845.200  1.291E-10
2845.400  1.296E-10
2845.600  1.289E-10
2845.800  1.300E-10
2846.000  1.309E-10
2846.200  1.303E-10
2846.400  1.311E-10
2846.600  1.307E-10
2846.800  1.288E-10
2847.000  1.311E-10
2847.200  1.317E-10
2847.400  1.305E-10
2847.600  1.300E-10
2847.800  1.309E-10
2848.000  1.301E-10
2848.200  1.312E-10
2848.400  1.297E-10
2848.600  1.299E-10
2848.800  1.282E-10
2849.000  1.295E-10
2849.200  1.319E-10
2849.400  1.320E-10
2849.600  1.302E-10
2849.800  1.314E-10
2850.000  1.301E-10
2850.200  1.297E-10
2850.400  1.306E-10
2850.600  1.308E-10
2850.800  1.307E-10
2851.000  1.289E-10
2851.200  1.292E-10
2851.400  1.268E-10
2851.600  1.272E-10
2851.800  1.304E-10
2852.000  1.287E-10
2852.200  1.287E-10
2852.400  1.298E-10
2852.600  1.301E-10
2852.800  1.305E-10
2853.000  1.253E-10
2853.200  6.344E-11
2853.400  1.310E-10
2853.600  1.309E-10
2853.800  1.307E-10
2854.000  1.307E-10
2854.200  1.297E-10
2854.400  1.288E-10
2854.600  1.301E-10
2854.800  1.301E-10
2855.000  1.300E-10
2855.200  1.292E-10
2855.400  1.294E-10
2855.600  1.305E-10
2855.800  1.312E-10
2856.000  1.284E-10
2856.200  1.292E-10
2856.400  1.286E-10
2856.600  1.293E-10
2856.800  1.292E-10
2857.000  1.288E-10
2857.200  1.278E-10
2857.400  1.293E-10
2857.600  1.293E-10
2857.800  1.290E-10
2858.000  1.290E-10
2858.200  1.294E-10
2858.400  1.300E-10
2858.600  1.288E-10
2858.800  1.284E-10
2859.000  1.293E-10
2859.200  1.293E-10
2859.400  1.278E-10
2859.600  1.269E-10
2859.800  1.250E-10
2860.000  1.278E-10
2860.200  1.268E-10
2860.400  1.245E-10
2860.600  1.231E-10
2860.800  1.264E-10
2861.000  1.274E-10
2861.200  1.267E-10
2861.400  1.287E-10
2861.600  1.270E-10
2861.800  1.269E-10
2862.000  1.281E-10
2862.200  1.276E-10
2862.400  1.267E-10
2862.600  1.262E-10
2862.800  1.254E-10
2863.000  1.275E-10
2863.200  1.262E-10
2863.400  1.279E-10
2863.600  1.262E-10
2863.800  1.267E-10
2864.000  1.272E-10
2864.200  1.270E-10
2864.400  1.280E-10
2864.600  1.209E-10
2864.800  1.232E-10
2865.000  1.268E-10
2865.200  1.268E-10
2865.400  1.265E-10
2865.600  1.267E-10
2865.800  1.265E-10
2866.000  1.258E-10
2866.200  1.271E-10
2866.400  1.275E-10
2866.600  1.268E-10
2866.800  1.274E-10
2867.000  1.271E-10
2867.200  1.286E-10
2867.400  1.270E-10
2867.600  1.262E-10
2867.800  1.277E-10
2868.000  1.277E-10
2868.200  1.289E-10
2868.400  1.293E-10
2868.600  1.291E-10
2868.800  1.271E-10
2869.000  1.274E-10
2869.200  1.273E-10
2869.400  1.271E-10
2869.600  1.262E-10
2869.800  1.258E-10
2870.000  1.245E-10
2870.200  1.245E-10
2870.400  1.271E-10
2870.600  1.279E-10
2870.800  1.266E-10
2871.000  1.261E-10
2871.200  1.260E-10
2871.400  1.248E-10
2871.600  1.249E-10
2871.800  1.255E-10
2872.000  1.257E-10
2872.200  1.256E-10
2872.400  1.253E-10
2872.600  1.251E-10
2872.800  1.253E-10
2873.000  1.171E-10
2873.200  1.257E-10
2873.400  1.257E-10
2873.600  1.257E-10
2873.800  1.263E-10
2874.000  1.268E-10
2874.200  1.260E-10
2874.400  1.259E-10
2874.600  1.267E-10
2874.800  1.267E-10
2875.000  1.248E-10
2875.200  1.260E-10
2875.400  1.256E-10
2875.600  1.257E-10
2875.800  1.254E-10
2876.000  1.251E-10
2876.200  1.256E-10
2876.400  1.254E-10
2876.600  1.255E-10
2876.800  1.255E-10
2877.000  1.262E-10
2877.200  1.264E-10
2877.400  1.251E-10
2877.600  1.264E-10
2877.800  1.271E-10
2878.000  1.256E-10
2878.200  1.257E-10
2878.400  1.253E-10
2878.600  1.260E-10
2878.800  1.256E-10
2879.000  1.260E-10
2879.200  1.254E-10
2879.400  1.260E-10
2879.600  1.266E-10
2879.800  1.261E-10
2880.000  1.243E-10
2880.200  1.246E-10
2880.400  1.259E-10
2880.600  1.256E-10
2880.800  1.252E-10
2881.000  1.246E-10
2881.200  1.252E-10
2881.400  1.268E-10
2881.600  1.248E-10
2881.800  1.245E-10
2882.000  1.233E-10
2882.200  1.233E-10
2882.400  1.267E-10
2882.600  1.256E-10
2882.800  1.253E-10
2883.000  1.253E-10
2883.200  1.249E-10
2883.400  1.270E-10
2883.600  1.268E-10
2883.800  1.273E-10
2884.000  1.270E-10
2884.200  1.269E-10
2884.400  1.264E-10
2884.600  1.265E-10
2884.800  1.262E-10
2885.000  1.253E-10
2885.200  1.273E-10
2885.400  1.247E-10
2885.600  1.262E-10
2885.800  1.258E-10
2886.000  1.265E-10
2886.200  1.273E-10
2886.400  1.226E-10
2886.600  1.222E-10
2886.800  1.237E-10
2887.000  1.232E-10
2887.200  1.234E-10
2887.400  1.243E-10
2887.600  1.250E-10
2887.800  1.246E-10
2888.000  1.245E-10
2888.200  1.258E-10
2888.400  1.245E-10
2888.600  1.241E-10
2888.800  1.236E-10
2889.000  1.224E-10
2889.200  1.240E-10
2889.400  1.241E-10
2889.600  1.228E-10
2889.800  1.231E-10
2890.000  1.245E-10
2890.200  1.244E-10
2890.400  1.232E-10
2890.600  1.241E-10
2890.800  1.254E-10
2891.000  1.237E-10
2891.200  1.233E-10
2891.400  1.233E-10
2891.600  1.238E-10
2891.800  1.238E-10
2892.000  1.228E-10
2892.200  1.229E-10
2892.400  1.227E-10
2892.600  1.239E-10
2892.800  1.238E-10
2893.000  1.240E-10
2893.200  1.233E-10
2893.400  1.230E-10
2893.600  1.233E-10
2893.800  1.220E-10
2894.000  1.226E-10
2894.200  1.241E-10
2894.400  1.253E-10
2894.600  1.237E-10
2894.800  1.224E-10
2895.000  1.247E-10
2895.200  1.241E-10
2895.400  1.239E-10
2895.600  1.243E-10
2895.800  1.254E-10
2896.000  1.232E-10
2896.200  1.165E-10
2896.400  1.232E-10
2896.600  1.223E-10
2896.800  1.235E-10
2897.000  1.241E-10
2897.200  1.237E-10
2897.400  1.229E-10
2897.600  1.220E-10
2897.800  1.213E-10
2898.000  1.227E-10
2898.200  1.239E-10
2898.400  1.256E-10
2898.600  1.218E-10
2898.800  1.217E-10
2899.000  1.231E-10
2899.200  1.233E-10
2899.400  1.232E-10
2899.600  1.219E-10
2899.800  1.241E-10
2900.000  1.227E-10
2900.200  1.223E-10
2900.400  1.221E-10
2900.600  1.222E-10
2900.800  1.224E-10
2901.000  1.204E-10
2901.200  1.224E-10
2901.400  1.214E-10
2901.600  1.196E-10
2901.800  1.221E-10
2902.000  1.235E-10
2902.200  1.237E-10
2902.400  1.243E-10
2902.600  1.224E-10
2902.800  1.227E-10
2903.000  1.241E-10
2903.200  1.228E-10
2903.400  1.230E-10
2903.600  1.214E-10
2903.800  1.226E-10
2904.000  1.220E-10
2904.200  1.221E-10
2904.400  1.223E-10
2904.600  1.230E-10
2904.800  1.233E-10
2905.000  1.224E-10
2905.200  1.227E-10
2905.400  1.196E-10
2905.600  1.176E-10
2905.800  1.214E-10
2906.000  1.220E-10
2906.200  1.214E-10
2906.400  1.222E-10
2906.600  1.221E-10
2906.800  1.212E-10
2907.000  1.198E-10
2907.200  1.228E-10
2907.400  1.228E-10
2907.600  1.219E-10
2907.800  1.184E-10
2908.000  1.183E-10
2908.200  1.207E-10
2908.400  1.202E-10
2908.600  1.164E-10
2908.800  1.092E-10
2909.000  1.192E-10
2909.200  1.207E-10
2909.400  1.202E-10
2909.600  1.202E-10
2909.800  1.161E-10
2910.000  1.205E-10
2910.200  1.205E-10
2910.400  1.205E-10
2910.600  1.196E-10
2910.800  1.210E-10
2911.000  1.209E-10
2911.200  1.200E-10
2911.400  1.206E-10
2911.600  1.207E-10
2911.800  1.202E-10
2912.000  1.188E-10
2912.200  1.188E-10
2912.400  1.209E-10
2912.600  1.208E-10
2912.800  1.192E-10
2913.000  1.190E-10
2913.200  1.208E-10
2913.400  1.180E-10
2913.600  1.211E-10
2913.800  1.205E-10
2914.000  1.207E-10
2914.200  1.211E-10
2914.400  1.214E-10
2914.600  1.212E-10
2914.800  1.212E-10
2915.000  1.213E-10
2915.200  1.219E-10
2915.400  1.226E-10
2915.600  1.210E-10
2915.800  1.208E-10
2916.000  1.217E-10
2916.200  1.216E-10
2916.400  1.206E-10
2916.600  1.207E-10
2916.800  1.194E-10
2917.000  1.201E-10
2917.200  1.224E-10
2917.400  1.218E-10
2917.600  1.201E-10
2917.800  1.210E-10
2918.000  1.210E-10
2918.200  1.215E-10
2918.400  1.220E-10
2918.600  1.204E-10
2918.800  1.200E-10
2919.000  1.203E-10
2919.200  1.197E-10
2919.400  1.195E-10
2919.600  1.184E-10
2919.800  1.184E-10
2920.000  1.185E-10
2920.200  1.191E-10
2920.400  1.193E-10
2920.600  1.190E-10
2920.800  1.194E-10
2921.000  1.193E-10
2921.200  1.195E-10
2921.400  1.192E-10
2921.600  1.195E-10
2921.800  1.186E-10
2922.000  1.191E-10
2922.200  1.203E-10
2922.400  1.200E-10
2922.600  1.195E-10
2922.800  1.194E-10
2923.000  1.200E-10
2923.200  1.201E-10
2923.400  1.194E-10
2923.600  1.200E-10
2923.800  1.204E-10
2924.000  1.209E-10
2924.200  1.194E-10
2924.400  1.183E-10
2924.600  1.200E-10
2924.800  1.212E-10
2925.000  1.186E-10
2925.200  1.189E-10
2925.400  1.192E-10
2925.600  1.211E-10
2925.800  1.202E-10
2926.000  1.200E-10
2926.200  1.214E-10
2926.400  1.209E-10
2926.600  1.213E-10
2926.800  1.212E-10
2927.000  1.211E-10
2927.200  1.187E-10
2927.400  1.205E-10
2927.600  1.201E-10
2927.800  1.197E-10
2928.000  1.206E-10
2928.200  1.192E-10
2928.400  1.200E-10
2928.600  1.201E-10
2928.800  1.193E-10
2929.000  1.207E-10
2929.200  1.202E-10
2929.400  1.205E-10
2929.600  1.179E-10
2929.800  1.115E-10
2930.000  1.185E-10
2930.200  1.187E-10
2930.400  1.174E-10
2930.600  1.179E-10
2930.800  1.174E-10
2931.000  1.172E-10
2931.200  1.183E-10
2931.400  1.185E-10
2931.600  1.187E-10
2931.800  1.191E-10
2932.000  1.182E-10
2932.200  1.199E-10
2932.400  1.192E-10
2932.600  1.190E-10
2932.800  1.187E-10
2933.000  1.195E-10
2933.200  1.196E-10
2933.400  1.182E-10
2933.600  1.185E-10
2933.800  1.185E-10
2934.000  1.188E-10
2934.200  1.183E-10
2934.400  1.195E-10
2934.600  1.184E-10
2934.800  1.189E-10
2935.000  1.195E-10
2935.200  1.193E-10
2935.400  1.172E-10
2935.600  1.173E-10
2935.800  1.154E-10
2936.000  1.185E-10
2936.200  1.190E-10
2936.400  1.181E-10
2936.600  1.183E-10
2936.800  1.183E-10
2937.000  1.184E-10
2937.200  1.183E-10
2937.400  1.191E-10
2937.600  1.124E-10
2937.800  1.174E-10
2938.000  1.174E-10
2938.200  1.189E-10
2938.400  1.200E-10
2938.600  1.178E-10
2938.800  1.157E-10
2939.000  1.175E-10
2939.200  1.180E-10
2939.400  1.176E-10
2939.600  1.183E-10
2939.800  1.182E-10
2940.000  1.192E-10
2940.200  1.187E-10
2940.400  1.184E-10
2940.600  1.182E-10
2940.800  1.196E-10
2941.000  1.202E-10
2941.200  1.193E-10
2941.400  1.173E-10
2941.600  1.172E-10
2941.800  1.177E-10
2942.000  1.178E-10
2942.200  1.179E-10
2942.400  1.173E-10
2942.600  1.184E-10
2942.800  1.191E-10
2943.000  1.161E-10
2943.200  1.177E-10
2943.400  1.177E-10
2943.600  1.180E-10
2943.800  1.164E-10
2944.000  1.168E-10
2944.200  1.159E-10
2944.400  1.150E-10
2944.600  1.173E-10
2944.800  1.183E-10
2945.000  1.182E-10
2945.200  1.172E-10
2945.400  1.171E-10
2945.600  1.162E-10
2945.800  1.140E-10
2946.000  1.097E-10
2946.200  8.895E-11
2946.400  1.016E-10
2946.600  1.124E-10
2946.800  1.150E-10
2947.000  1.171E-10
2947.200  1.176E-10
2947.400  1.184E-10
2947.600  1.185E-10
2947.800  1.166E-10
2948.000  1.164E-10
2948.200  1.176E-10
2948.400  1.171E-10
2948.600  1.181E-10
2948.800  1.162E-10
2949.000  1.178E-10
2949.200  1.180E-10
2949.400  1.160E-10
2949.600  1.166E-10
2949.800  1.169E-10
2950.000  1.170E-10
2950.200  1.166E-10
2950.400  1.152E-10
2950.600  1.171E-10
2950.800  1.174E-10
2951.000  1.166E-10
2951.200  1.164E-10
2951.400  1.110E-10
2951.600  1.158E-10
2951.800  1.175E-10
2952.000  1.166E-10
2952.200  1.167E-10
2952.400  1.159E-10
2952.600  1.160E-10
2952.800  1.157E-10
2953.000  1.175E-10
2953.200  1.167E-10
2953.400  1.166E-10
2953.600  1.163E-10
2953.800  1.161E-10
2954.000  1.139E-10
2954.200  1.162E-10
2954.400  1.166E-10
2954.600  1.173E-10
2954.800  1.168E-10
2955.000  1.161E-10
2955.200  1.164E-10
2955.400  1.172E-10
2955.600  1.171E-10
2955.800  1.160E-10
2956.000  1.145E-10
2956.200  1.149E-10
2956.400  1.162E-10
2956.600  1.154E-10
2956.800  1.138E-10
2957.000  1.154E-10
2957.200  1.151E-10
2957.400  1.149E-10
2957.600  1.159E-10
2957.800  1.165E-10
2958.000  1.156E-10
2958.200  1.150E-10
2958.400  1.150E-10
2958.600  1.152E-10
2958.800  1.141E-10
2959.000  1.150E-10
2959.200  1.142E-10
2959.400  1.108E-10
2959.600  1.156E-10
2959.800  1.156E-10
2960.000  1.155E-10
2960.200  1.149E-10
2960.400  1.150E-10
2960.600  1.156E-10
2960.800  1.137E-10
2961.000  1.138E-10
2961.200  1.136E-10
2961.400  1.137E-10
2961.600  1.140E-10
2961.800  1.141E-10
2962.000  1.148E-10
2962.200  1.144E-10
2962.400  1.157E-10
2962.600  1.139E-10
2962.800  1.148E-10
2963.000  1.135E-10
2963.200  1.154E-10
2963.400  1.141E-10
2963.600  1.153E-10
2963.800  1.148E-10
2964.000  1.159E-10
2964.200  1.131E-10
2964.400  1.105E-10
2964.600  1.149E-10
2964.800  1.148E-10
2965.000  1.140E-10
2965.200  1.150E-10
2965.400  1.167E-10
2965.600  1.158E-10
2965.800  1.153E-10
2966.000  1.132E-10
2966.200  1.137E-10
2966.400  1.147E-10
2966.600  1.139E-10
2966.800  1.139E-10
2967.000  1.157E-10
2967.200  1.153E-10
2967.400  1.143E-10
2967.600  1.134E-10
2967.800  1.144E-10
2968.000  1.143E-10
2968.200  1.134E-10
2968.400  1.144E-10
2968.600  1.161E-10
2968.800  1.128E-10
2969.000  1.137E-10
2969.200  1.143E-10
2969.400  1.153E-10
2969.600  1.134E-10
2969.800  1.129E-10
2970.000  1.129E-10
2970.200  1.151E-10
2970.400  1.150E-10
2970.600  1.137E-10
2970.800  1.139E-10
2971.000  1.136E-10
2971.200  1.120E-10
2971.400  1.146E-10
2971.600  1.139E-10
2971.800  1.137E-10
2972.000  1.140E-10
2972.200  1.138E-10
2972.400  1.132E-10
2972.600  1.139E-10
2972.800  1.130E-10
2973.000  1.134E-10
2973.200  1.141E-10
2973.400  1.127E-10
2973.600  1.139E-10
2973.800  1.140E-10
2974.000  1.144E-10
2974.200  1.134E-10
2974.400  1.145E-10
2974.600  1.154E-10
2974.800  1.139E-10
2975.000  1.136E-10
2975.200  1.148E-10
2975.400  1.147E-10
2975.600  1.138E-10
2975.800  1.141E-10
2976.000  1.143E-10
2976.200  1.130E-10
2976.400  1.145E-10
2976.600  1.141E-10
2976.800  1.128E-10
2977.000  1.128E-10
2977.200  1.126E-10
2977.400  1.145E-10
2977.600  1.141E-10
2977.800  1.124E-10
2978.000  1.130E-10
2978.200  1.126E-10
2978.400  1.115E-10
2978.600  1.125E-10
2978.800  1.139E-10
2979.000  1.144E-10
2979.200  1.128E-10
2979.400  1.130E-10
2979.600  1.136E-10
2979.800  1.136E-10
2980.000  1.125E-10
2980.200  1.118E-10
2980.400  1.119E-10
2980.600  1.121E-10
2980.800  1.126E-10
2981.000  1.118E-10
2981.200  1.118E-10
2981.400  1.118E-10
2981.600  1.123E-10
2981.800  1.119E-10
2982.000  1.107E-10
2982.200  1.107E-10
2982.400  1.125E-10
2982.600  1.132E-10
2982.800  1.128E-10
2983.000  1.128E-10
2983.200  1.115E-10
2983.400  1.125E-10
2983.600  1.121E-10
2983.800  1.120E-10
2984.000  1.121E-10
2984.200  1.131E-10
2984.400  1.133E-10
2984.600  1.126E-10
2984.800  1.124E-10
2985.000  1.132E-10
2985.200  1.131E-10
2985.400  1.134E-10
2985.600  1.124E-10
2985.800  1.109E-10
2986.000  1.083E-10
2986.200  1.107E-10
2986.400  1.121E-10
2986.600  1.128E-10
2986.800  1.128E-10
2987.000  1.128E-10
2987.200  1.115E-10
2987.400  1.112E-10
2987.600  1.120E-10
2987.800  1.122E-10
2988.000  1.128E-10
2988.200  1.132E-10
2988.400  1.139E-10
2988.600  1.119E-10
2988.800  1.114E-10
2989.000  1.117E-10
2989.200  1.127E-10
2989.400  1.122E-10
2989.600  1.115E-10
2989.800  1.115E-10
2990.000  1.128E-10
2990.200  1.122E-10
2990.400  1.115E-10
2990.600  1.091E-10
2990.800  1.118E-10
2991.000  1.117E-10
2991.200  1.114E-10
2991.400  1.109E-10
2991.600  1.090E-10
2991.800  1.099E-10
2992.000  1.102E-10
2992.200  1.097E-10
2992.400  1.103E-10
2992.600  1.100E-10
2992.800  1.105E-10
2993.000  1.103E-10
2993.200  1.098E-10
2993.400  1.105E-10
2993.600  1.077E-10
2993.800  1.051E-10
2994.000  1.105E-10
2994.200  1.104E-10
2994.400  1.109E-10
2994.600  1.112E-10
2994.800  1.113E-10
2995.000  1.112E-10
2995.200  1.116E-10
2995.400  1.111E-10
2995.600  1.111E-10
2995.800  1.123E-10
2996.000  1.111E-10
2996.200  1.095E-10
2996.400  1.109E-10
2996.600  1.114E-10
2996.800  1.108E-10
2997.000  1.089E-10
2997.200  1.120E-10
2997.400  1.112E-10
2997.600  1.116E-10
2997.800  1.110E-10
2998.000  1.126E-10
2998.200  1.117E-10
2998.400  1.115E-10
2998.600  1.119E-10
2998.800  1.130E-10
2999.000  1.124E-10
2999.200  1.127E-10
2999.400  1.110E-10
2999.600  1.105E-10
2999.800  1.114E-10
3000.000  1.115E-10
3000.200  1.114E-10
3000.400  1.112E-10
3000.600  1.099E-10
3000.800  1.093E-10
3001.000  1.096E-10
3001.200  1.120E-10
3001.400  1.120E-10
3001.600  1.123E-10
3001.800  1.097E-10
3002.000  1.105E-10
3002.200  1.107E-10
3002.400  1.097E-10
3002.600  1.098E-10
3002.800  1.025E-10
3003.000  1.088E-10
3003.200  1.090E-10
3003.400  1.096E-10
3003.600  1.092E-10
3003.800  1.073E-10
3004.000  1.074E-10
3004.200  1.061E-10
3004.400  1.082E-10
3004.600  1.081E-10
3004.800  1.084E-10
3005.000  1.082E-10
3005.200  1.079E-10
3005.400  1.068E-10
3005.600  1.078E-10
3005.800  1.087E-10
3006.000  1.080E-10
3006.200  1.096E-10
3006.400  1.091E-10
3006.600  1.102E-10
3006.800  1.096E-10
3007.000  1.078E-10
3007.200  1.051E-10
3007.400  1.082E-10
3007.600  1.104E-10
3007.800  1.074E-10
3008.000  1.022E-10
3008.200  9.313E-11
3008.400  8.318E-11
3008.600  9.529E-11
3008.800  9.886E-11
3009.000  1.068E-10
3009.200  1.073E-10
3009.400  1.065E-10
3009.600  1.046E-10
3009.800  1.073E-10
3010.000  1.081E-10
3010.200  1.097E-10
3010.400  1.099E-10
3010.600  1.077E-10
3010.800  1.080E-10
3011.000  1.077E-10
3011.200  1.090E-10
3011.400  1.098E-10
3011.600  1.102E-10
3011.800  1.107E-10
3012.000  1.108E-10
3012.200  1.104E-10
3012.400  1.103E-10
3012.600  1.108E-10
3012.800  1.110E-10
3013.000  1.127E-10
3013.200  1.110E-10
3013.400  1.111E-10
3013.600  1.116E-10
3013.800  1.106E-10
3014.000  1.091E-10
3014.200  1.085E-10
3014.400  1.060E-10
3014.600  1.091E-10
3014.800  1.093E-10
3015.000  1.088E-10
3015.200  1.086E-10
3015.400  1.092E-10
3015.600  1.086E-10
3015.800  1.094E-10
3016.000  1.086E-10
3016.200  1.077E-10
3016.400  1.057E-10
3016.600  1.090E-10
3016.800  1.088E-10
3017.000  1.076E-10
3017.200  1.069E-10
3017.400  1.085E-10
3017.600  1.088E-10
3017.800  1.086E-10
3018.000  1.086E-10
3018.200  1.080E-10
3018.400  1.089E-10
3018.600  1.087E-10
3018.800  1.086E-10
3019.000  1.089E-10
3019.200  1.114E-10
3019.400  1.114E-10
3019.600  1.094E-10
3019.800  1.093E-10
3020.000  1.095E-10
3020.200  1.092E-10
3020.400  1.102E-10
3020.600  1.105E-10
3020.800  1.101E-10
3021.000  1.103E-10
3021.200  1.103E-10
3021.400  1.101E-10
3021.600  1.093E-10
3021.800  1.099E-10
3022.000  1.102E-10
3022.200  1.101E-10
3022.400  1.101E-10
3022.600  1.109E-10
3022.800  1.116E-10
3023.000  1.107E-10
3023.200  1.069E-10
3023.400  1.062E-10
3023.600  1.061E-10
3023.800  1.063E-10
3024.000  1.063E-10
3024.200  1.093E-10
3024.400  1.088E-10
3024.600  1.079E-10
3024.800  1.072E-10
3025.000  1.052E-10
3025.200  1.086E-10
3025.400  1.082E-10
3025.600  1.079E-10
3025.800  1.078E-10
3026.000  1.078E-10
3026.200  1.089E-10
3026.400  1.088E-10
3026.600  1.081E-10
3026.800  1.081E-10
3027.000  1.073E-10
3027.200  1.075E-10
3027.400  1.067E-10
3027.600  1.084E-10
3027.800  1.083E-10
3028.000  1.077E-10
3028.200  1.043E-10
3028.400  1.062E-10
3028.600  1.059E-10
3028.800  1.070E-10
3029.000  1.073E-10
3029.200  1.070E-10
3029.400  1.065E-10
3029.600  1.056E-10
3029.800  1.053E-10
3030.000  1.019E-10
3030.200  1.069E-10
3030.400  1.064E-10
3030.600  1.061E-10
3030.800  1.063E-10
3031.000  1.044E-10
3031.200  1.055E-10
3031.400  1.052E-10
3031.600  1.059E-10
3031.800  1.058E-10
3032.000  1.063E-10
3032.200  1.068E-10
3032.400  1.069E-10
3032.600  1.085E-10
3032.800  1.080E-10
3033.000  1.078E-10
3033.200  1.053E-10
3033.400  1.073E-10
3033.600  1.072E-10
3033.800  1.073E-10
3034.000  1.088E-10
3034.200  1.080E-10
3034.400  1.074E-10
3034.600  1.069E-10
3034.800  1.077E-10
3035.000  1.063E-10
3035.200  1.052E-10
3035.800  1.045E-10
3036.000  1.066E-10
3036.200  1.077E-10
3036.400  1.077E-10
3036.600  1.074E-10
3036.800  1.067E-10
3037.000  1.069E-10
3037.200  1.076E-10
3037.400  1.069E-10
3037.600  1.065E-10
3037.800  1.064E-10
3038.000  1.063E-10
3038.200  1.055E-10
3038.400  1.056E-10
3038.600  1.057E-10
3038.800  1.058E-10
3039.000  1.052E-10
3039.200  1.070E-10
3039.400  1.068E-10
3039.600  1.077E-10
3039.800  1.084E-10
3040.000  1.091E-10
3040.200  1.093E-10
3040.400  1.094E-10
3040.600  1.098E-10
3040.800  1.100E-10
3041.000  1.109E-10
3041.200  1.110E-10
3041.400  1.107E-10
3041.600  1.092E-10
3041.800  1.081E-10
3042.000  1.078E-10
3042.200  1.072E-10
3042.400  1.071E-10
3042.600  1.079E-10
3042.800  1.084E-10
3043.000  1.062E-10
3043.200  1.060E-10
3043.400  1.057E-10
3043.600  1.057E-10
3043.800  1.076E-10
3044.000  1.085E-10
3044.200  1.081E-10
3044.400  1.084E-10
3044.600  1.108E-10
3044.800  1.103E-10
3045.000  1.102E-10
3045.200  1.115E-10
3045.400  1.124E-10
3045.600  1.130E-10
3045.800  1.125E-10
3046.000  1.126E-10
3046.200  1.113E-10
3046.400  1.118E-10
3046.600  1.106E-10
3046.800  1.092E-10
